Hegyhatsal based on FORESEE database
MTCLIM v4.3 OUTPUT FILE
year	yday	Tmax	Tmin	Tday	prcp	VPD	srad	daylen
              (degC)   (degC)  (degC)   (cm)    (Pa)   (Wm-2)     (s)
2013	1	6.59	-4.73	3.48	0.00	63.75	172.69	30217
2013	2	2.37	-3.11	0.86	0.00	12.50	41.30	30272
2013	3	-0.28	-3.23	-1.09	0.00	200.00	124.23	30331
2013	4	6.92	-1.95	4.48	0.01	333.75	116.26	30396
2013	5	10.31	0.57	7.63	0.40	378.75	69.14	30464
2013	6	10.97	3.94	9.04	0.08	77.50	33.14	30537
2013	7	7.16	2.71	5.94	0.88	28.75	57.31	30614
2013	8	5.72	-0.85	3.91	0.30	28.75	42.76	30695
2013	9	0.12	-1.99	-0.46	0.28	36.25	53.03	30781
2013	10	4.67	-0.21	3.33	0.03	31.25	59.58	30870
2013	11	3.82	1.43	3.16	0.00	57.50	63.57	30964
2013	12	3.40	-1.03	2.18	0.00	213.33	128.34	31061
2013	13	1.60	-5.33	-0.31	0.00	37.78	62.33	31162
2013	14	-0.96	-2.99	-1.52	1.78	20.00	51.45	31268
2013	15	-1.52	-3.41	-2.04	1.07	32.22	92.46	31376
2013	16	0.33	-2.58	-0.47	0.04	86.67	112.82	31489
2013	17	0.22	-1.89	-0.36	1.23	47.78	80.72	31605
2013	18	-0.28	-1.62	-0.65	0.24	37.78	66.94	31724
2013	19	-1.14	-3.88	-1.89	0.35	98.89	71.99	31847
2013	20	-1.91	-4.58	-2.64	0.00	83.00	125.07	31974
2013	21	3.43	-4.71	1.19	0.05	15.00	70.98	32103
2013	22	4.41	-0.91	2.95	0.87	34.00	73.66	32236
2013	23	0.85	-0.98	0.35	0.35	10.00	64.51	32372
2013	24	0.34	-1.75	-0.23	0.00	10.00	34.98	32510
2013	25	-0.35	-1.94	-0.79	0.07	119.00	177.03	32652
2013	26	-0.73	-5.21	-1.96	0.00	106.00	181.89	32797
2013	27	-3.16	-9.83	-4.99	0.00	100.00	171.05	32944
2013	28	-1.52	-13.28	-4.75	0.00	46.00	85.69	33094
2013	29	-0.33	-3.59	-1.23	0.30	64.00	95.75	33247
2013	30	2.47	-5.47	0.29	0.14	313.00	204.34	33402
2013	31	8.44	0.30	6.20	0.00	880.00	258.66	33559
2013	32	8.44	0.05	6.13	0.00	491.00	133.99	33719
2013	33	6.77	2.70	5.65	1.88	74.00	20.72	33882
2013	34	5.15	0.40	3.84	0.00	429.00	179.25	34046
2013	35	4.49	-2.68	2.52	0.00	317.00	93.96	34213
2013	36	6.42	0.05	4.67	0.26	270.00	65.81	34382
2013	37	3.78	-0.68	2.55	0.23	21.00	64.71	34552
2013	38	5.15	-1.39	3.35	0.00	284.00	278.58	34725
2013	39	3.29	-3.69	1.37	0.00	238.00	248.28	34900
2013	40	0.43	-2.35	-0.33	0.17	209.00	138.66	35076
2013	41	-0.73	-3.34	-1.45	0.21	66.00	117.41	35254
2013	42	1.23	-8.44	-1.43	0.48	188.00	221.38	35434
2013	43	-0.03	-3.22	-0.91	0.61	27.00	100.01	35615
2013	44	-0.31	-1.78	-0.71	0.58	52.00	83.19	35798
2013	45	0.62	-1.44	0.05	0.43	82.00	106.86	35983
2013	46	3.38	-1.18	2.13	0.00	108.00	166.44	36169
2013	47	4.82	-1.09	3.19	0.00	214.00	258.11	36356
2013	48	4.19	-0.74	2.83	0.00	153.00	157.98	36544
2013	49	4.43	-0.78	3.00	0.00	185.00	205.28	36734
2013	50	5.23	-1.68	3.33	0.00	257.00	237.83	36925
2013	51	3.78	-1.36	2.37	0.01	276.00	168.58	37117
2013	52	0.97	-5.01	-0.67	0.26	203.00	282.07	37310
2013	53	-1.54	-5.46	-2.62	1.46	77.00	160.78	37505
2013	54	1.60	-3.94	0.08	1.31	50.91	149.42	37700
2013	55	2.88	-0.94	1.83	0.27	10.00	90.93	37896
2013	56	4.16	0.74	3.22	2.29	30.91	168.99	38093
2013	57	3.73	1.09	3.00	0.51	22.73	47.84	38291
2013	58	4.78	1.24	3.81	0.05	149.09	62.78	38490
2013	59	-0.84	-3.05	-1.45	0.10	223.64	233.39	38689
2013	60	8.75	2.15	6.94	0.00	45.45	83.30	38890
2013	61	4.76	-1.11	3.15	0.00	373.64	371.38	39091
2013	62	6.74	-0.27	4.81	0.00	430.00	389.12	39292
2013	63	9.90	-3.68	6.17	0.00	385.83	379.38	39495
2013	64	8.21	-1.35	5.58	0.00	480.83	364.56	39697
2013	65	10.87	-2.07	7.31	0.00	480.83	213.26	39901
2013	66	13.64	4.29	11.07	0.00	495.83	310.07	40105
2013	67	16.83	7.96	14.39	0.00	569.17	294.94	40309
2013	68	18.13	6.44	14.92	0.00	292.50	242.51	40514
2013	69	14.15	5.30	11.72	0.67	53.33	81.72	40719
2013	70	10.64	7.65	9.82	0.55	290.00	303.47	40924
2013	71	13.90	1.03	10.36	0.01	188.33	151.16	41130
2013	72	8.66	2.09	6.85	0.01	274.17	192.22	41336
2013	73	9.59	2.92	7.76	0.21	130.83	85.29	41543
2013	74	7.06	-2.73	4.37	0.07	353.33	235.40	41749
2013	75	1.10	-2.86	0.01	0.00	336.67	313.14	41956
2013	76	2.89	-4.14	0.96	0.00	360.83	310.00	42163
2013	77	4.62	-5.16	1.93	0.00	130.83	74.61	42370
2013	78	3.62	0.21	2.68	1.05	484.17	258.32	42578
2013	79	12.75	1.61	9.69	0.00	560.42	291.29	42785
2013	80	14.01	-1.29	9.80	0.03	509.17	215.76	42992
2013	81	10.33	4.87	8.83	0.00	391.67	457.61	43200
2013	82	7.33	-1.28	4.96	0.00	200.83	207.28	43407
2013	83	1.99	-2.62	0.72	0.04	68.33	124.35	43615
2013	84	0.43	-4.02	-0.79	0.41	61.67	106.98	43822
2013	85	-2.26	-4.19	-2.79	0.89	72.50	136.87	44029
2013	86	-2.34	-4.32	-2.88	0.40	222.50	396.18	44236
2013	87	2.66	-5.03	0.55	0.00	264.17	457.91	44443
2013	88	5.82	-6.60	2.40	0.13	27.50	58.42	44650
2013	89	3.44	1.39	2.88	0.82	60.83	107.53	44857
2013	90	5.23	1.43	4.19	3.21	57.50	70.49	45063
2013	91	4.34	0.30	3.23	0.94	181.67	168.67	45270
2013	92	4.22	-0.49	2.92	0.06	14.17	59.33	45475
2013	93	2.86	0.30	2.16	2.25	86.92	113.44	45681
2013	94	2.08	-0.25	1.44	0.30	283.08	323.02	45886
2013	95	9.00	0.33	6.62	0.00	85.38	114.58	46091
2013	96	6.55	2.08	5.32	0.12	247.69	217.35	46295
2013	97	7.47	3.01	6.24	0.00	217.86	244.22	46499
2013	98	7.21	2.23	5.84	0.00	425.71	466.02	46702
2013	99	10.32	-0.97	7.22	0.00	481.43	390.59	46905
2013	100	14.49	1.84	11.01	0.00	479.29	277.02	47107
2013	101	15.36	5.56	12.66	0.11	625.71	390.84	47309
2013	102	17.73	2.42	13.52	0.00	611.43	341.18	47510
2013	103	18.90	8.89	16.15	0.55	742.14	360.73	47710
2013	104	17.72	5.49	14.36	0.00	886.43	476.88	47910
2013	105	18.95	5.19	15.17	0.00	970.00	492.22	48108
2013	106	18.43	5.56	14.89	0.00	1100.00	518.62	48306
2013	107	19.41	4.08	15.19	0.00	931.43	313.59	48504
2013	108	22.02	5.50	17.48	0.00	1241.43	444.88	48700
2013	109	24.16	7.88	19.68	0.00	921.43	405.65	48895
2013	110	22.70	9.63	19.11	0.00	437.14	309.51	49089
2013	111	17.83	9.46	15.53	0.00	740.71	447.18	49282
2013	112	20.86	7.04	17.06	0.01	721.43	333.79	49475
2013	113	21.39	9.27	18.06	0.71	663.57	350.89	49666
2013	114	20.81	8.41	17.40	0.00	1303.57	513.77	49855
2013	115	23.45	6.54	18.80	0.00	1363.57	485.21	50044
2013	116	25.44	7.19	20.42	0.00	1633.57	486.35	50231
2013	117	26.89	9.31	22.06	0.00	1006.43	308.70	50417
2013	118	23.14	14.46	20.75	0.00	1101.43	487.96	50601
2013	119	24.53	12.94	21.34	0.00	1193.57	403.46	50784
2013	120	25.26	11.12	21.37	0.00	1267.86	431.24	50966
2013	121	26.99	11.39	22.70	0.00	1045.00	457.20	51145
2013	122	26.20	12.49	22.43	0.05	349.29	211.94	51324
2013	123	21.38	14.84	19.58	0.73	480.71	356.03	51500
2013	124	22.62	12.76	19.91	0.04	567.86	318.97	51674
2013	125	21.37	9.60	18.13	0.01	368.57	170.15	51847
2013	126	18.16	12.29	16.55	0.74	282.00	208.36	52018
2013	127	20.64	12.93	18.52	0.03	595.33	374.15	52187
2013	128	22.66	14.12	20.31	0.00	690.67	414.18	52353
2013	129	22.64	11.68	19.63	0.02	970.00	404.19	52518
2013	130	24.47	10.82	20.72	0.01	1070.67	469.60	52680
2013	131	24.64	8.99	20.34	0.49	240.67	131.74	52840
2013	132	18.14	11.99	16.45	0.40	698.67	400.24	52998
2013	133	18.38	10.73	16.28	0.00	934.67	474.95	53153
2013	134	17.97	8.49	15.36	0.03	636.11	264.87	53306
2013	135	20.50	7.38	16.89	0.00	1096.00	556.58	53456
2013	136	23.16	6.99	18.71	0.00	862.67	383.97	53603
2013	137	23.82	11.04	20.31	0.02	276.67	228.83	53748
2013	138	20.77	11.12	18.12	1.14	996.67	553.51	53889
2013	139	22.11	10.48	18.91	0.00	1209.33	488.86	54028
2013	140	25.91	10.09	21.56	0.32	708.67	423.06	54164
2013	141	20.81	10.10	17.86	0.20	969.33	484.49	54297
2013	142	21.24	8.75	17.81	0.00	652.67	432.61	54426
2013	143	19.33	7.09	15.96	0.49	601.88	356.93	54552
2013	144	15.98	8.70	13.98	0.00	721.88	393.92	54675
2013	145	15.80	7.32	13.47	0.00	280.00	215.62	54795
2013	146	14.26	8.05	12.55	0.62	561.25	355.26	54911
2013	147	16.57	7.78	14.15	0.25	290.00	197.47	55023
2013	148	15.37	7.28	13.15	0.11	592.50	397.34	55132
2013	149	20.45	7.97	17.02	0.00	923.75	397.61	55237
2013	150	23.22	9.83	19.54	0.01	143.75	68.96	55339
2013	151	18.41	9.36	15.92	1.60	210.62	176.90	55436
2013	152	13.08	8.04	11.69	0.30	196.87	217.67	55530
2013	153	16.53	8.10	14.21	0.87	155.63	189.13	55619
2013	154	15.87	8.61	13.87	0.44	508.75	253.96	55705
2013	155	17.87	8.57	15.31	0.03	298.13	106.68	55786
2013	156	16.56	9.80	14.70	0.27	303.75	203.37	55863
2013	157	18.18	12.15	16.52	0.05	523.75	372.95	55936
2013	158	20.88	10.33	17.98	0.00	643.75	466.46	56004
2013	159	23.07	11.95	20.01	0.00	880.63	456.02	56068
2013	160	25.88	12.58	22.22	0.17	1120.00	474.35	56128
2013	161	26.99	12.25	22.94	0.00	886.88	409.69	56183
2013	162	24.48	14.70	21.79	0.47	248.75	183.45	56234
2013	163	18.78	13.21	17.25	0.58	1026.88	450.34	56280
2013	164	22.60	10.08	19.16	0.00	1295.00	426.50	56321
2013	165	25.28	11.30	21.44	0.00	1157.50	516.04	56358
2013	166	25.52	11.51	21.67	0.00	1298.75	473.30	56390
2013	167	27.99	12.76	23.80	0.00	1220.00	370.22	56418
2013	168	28.82	16.35	25.39	0.00	1546.25	488.57	56440
2013	169	31.40	17.02	27.45	0.00	1706.25	486.18	56458
2013	170	32.39	17.80	28.38	0.00	1653.75	481.24	56472
2013	171	33.08	18.48	29.07	0.00	1667.50	469.96	56480
2013	172	33.35	19.65	29.58	0.00	2202.50	512.53	56484
2013	173	32.09	19.77	28.70	0.00	1278.75	465.01	56482
2013	174	29.83	17.09	26.33	0.35	1165.63	450.76	56476
2013	175	27.73	16.75	24.71	0.12	201.25	67.52	56466
2013	176	22.27	11.96	19.43	1.98	516.88	182.02	56450
2013	177	18.08	12.05	16.42	0.00	703.75	323.38	56430
2013	178	19.33	8.44	16.34	0.00	898.75	535.53	56405
2013	179	18.91	6.25	15.43	0.00	843.13	404.95	56375
2013	180	20.38	6.66	16.61	0.00	984.37	425.68	56341
2013	181	22.33	9.12	18.70	0.00	958.13	471.17	56301
2013	182	22.24	10.18	18.92	0.01	1183.75	504.25	56258
2013	183	23.98	7.91	19.56	0.00	1185.00	497.05	56209
2013	184	26.88	10.58	22.40	0.00	1541.25	464.80	56156
2013	185	27.95	12.08	23.59	0.00	1308.13	496.71	56099
2013	186	28.30	13.98	24.36	0.00	1379.38	492.35	56037
2013	187	28.13	15.91	24.77	0.11	941.88	468.11	55971
2013	188	26.89	17.76	24.38	0.18	1103.75	472.00	55900
2013	189	27.65	17.19	24.77	0.01	1376.87	499.54	55825
2013	190	27.06	16.93	24.27	0.00	1496.25	488.63	55746
2013	191	28.29	15.55	24.79	0.00	1655.00	463.36	55663
2013	192	28.96	14.59	25.01	0.02	572.50	212.82	55575
2013	193	24.64	15.57	22.15	0.24	1206.88	448.15	55484
2013	194	24.57	10.24	20.63	0.00	1177.50	351.58	55388
2013	195	25.33	11.57	21.55	0.00	1480.63	457.60	55289
2013	196	26.31	12.86	22.61	0.00	1001.25	380.92	55186
2013	197	26.30	13.67	22.83	0.57	1266.88	461.33	55079
2013	198	25.74	12.03	21.97	0.00	1660.00	511.00	54968
2013	199	28.33	11.28	23.64	0.00	1818.13	448.59	54854
2013	200	29.57	12.80	24.96	0.00	1730.63	412.32	54736
2013	201	30.31	14.24	25.89	0.00	1665.00	464.40	54615
2013	202	29.41	16.21	25.78	0.00	1601.25	509.58	54490
2013	203	27.25	14.72	23.80	0.00	1885.00	509.65	54362
2013	204	29.87	11.70	24.87	0.00	2279.38	498.04	54231
2013	205	32.02	13.80	27.01	0.00	1893.75	441.45	54097
2013	206	32.02	15.44	27.46	0.00	1449.37	352.91	53960
2013	207	29.83	17.02	26.31	0.00	1946.25	408.55	53819
2013	208	32.97	16.28	28.38	0.00	2231.88	459.52	53676
2013	209	34.40	18.16	29.93	0.00	2060.00	466.42	53530
2013	210	35.43	19.18	30.96	0.00	3151.33	480.67	53382
2013	211	37.40	20.94	32.87	0.00	1683.57	361.49	53230
2013	212	28.59	18.56	25.83	0.00	1755.00	384.44	53076
2013	213	29.53	13.39	25.09	0.00	1921.43	507.29	52920
2013	214	30.60	14.77	26.25	0.00	2355.00	508.06	52761
2013	215	33.99	14.40	28.60	0.00	2690.00	489.46	52600
2013	216	35.96	16.72	30.67	0.00	2891.43	466.00	52437
2013	217	35.94	18.30	31.09	0.04	1829.29	500.23	52271
2013	218	33.01	17.39	28.71	0.00	2780.00	472.57	52103
2013	219	36.02	18.11	31.09	0.00	2815.00	469.56	51934
2013	220	36.02	19.99	31.61	0.00	3570.00	467.60	51762
2013	221	38.78	18.74	33.27	0.00	2026.43	445.09	51588
2013	222	34.07	19.91	30.18	1.19	1055.00	258.16	51413
2013	223	25.80	16.71	23.30	0.00	1623.57	481.69	51235
2013	224	28.33	12.32	23.93	0.00	1756.43	390.84	51057
2013	225	29.57	16.23	25.90	0.00	1336.43	422.28	50876
2013	226	28.86	14.43	24.89	0.33	304.29	89.99	50694
2013	227	18.85	15.56	17.95	0.10	1404.29	510.44	50510
2013	228	24.66	12.07	21.20	0.00	1632.14	482.65	50325
2013	229	26.71	8.83	21.79	0.00	1859.29	483.31	50138
2013	230	29.07	10.24	23.89	0.00	2010.00	471.28	49951
2013	231	31.22	12.36	26.03	0.00	2069.29	427.01	49761
2013	232	31.95	14.47	27.14	0.01	1014.29	291.26	49571
2013	233	24.31	17.31	22.38	0.09	1122.86	372.70	49380
2013	234	23.90	16.03	21.74	0.00	1352.14	424.47	49187
2013	235	25.20	13.35	21.94	0.00	1265.00	356.65	48993
2013	236	26.71	11.96	22.65	0.54	212.14	124.83	48798
2013	237	21.25	15.18	19.58	0.67	138.57	119.06	48603
2013	238	18.47	11.85	16.65	0.26	328.57	178.56	48406
2013	239	20.80	14.03	18.94	0.21	397.14	209.94	48208
2013	240	22.80	14.66	20.56	1.10	335.71	229.25	48010
2013	241	20.70	15.15	19.17	0.01	1169.29	477.02	47811
2013	242	23.65	13.62	20.89	0.00	1246.43	452.51	47611
2013	243	24.13	10.02	20.25	0.00	1360.71	395.76	47410
2013	244	26.04	9.43	21.47	0.00	590.00	219.45	47209
2013	245	23.82	12.26	20.64	0.15	749.29	365.04	47007
2013	246	20.85	9.91	17.84	0.00	1174.62	245.75	46805
2013	247	23.80	14.35	21.20	0.00	763.08	298.94	46601
2013	248	24.25	13.32	21.24	0.00	899.23	269.71	46398
2013	249	24.96	14.11	21.98	0.00	1157.69	397.66	46194
2013	250	25.42	13.89	22.25	0.00	1320.77	419.42	45989
2013	251	25.75	11.15	21.73	0.00	1581.54	408.25	45784
2013	252	26.29	10.18	21.86	0.01	274.62	107.52	45579
2013	253	19.40	13.28	17.72	0.85	470.00	272.55	45373
2013	254	21.54	13.73	19.39	2.70	497.69	267.17	45167
2013	255	17.82	10.71	15.86	0.07	637.69	345.66	44961
2013	256	18.94	10.44	16.60	0.49	437.69	335.40	44755
2013	257	17.46	7.98	14.85	0.06	812.50	160.35	44548
2013	258	20.41	10.14	17.59	0.02	627.50	286.93	44341
2013	259	22.29	9.05	18.65	0.00	695.83	339.77	44134
2013	260	23.12	10.48	19.64	1.35	155.00	105.67	43927
2013	261	16.97	8.54	14.65	0.80	334.17	162.99	43719
2013	262	16.04	4.96	12.99	0.15	640.00	302.45	43512
2013	263	17.73	10.42	15.72	0.00	686.67	322.44	43304
2013	264	19.81	6.47	16.14	0.01	768.33	254.33	43097
2013	265	19.33	10.41	16.88	0.00	716.67	378.93	42890
2013	266	18.81	9.15	16.15	0.00	859.17	383.94	42682
2013	267	22.29	7.38	18.19	0.00	783.33	410.78	42475
2013	268	21.77	7.92	17.96	0.00	566.67	381.10	42268
2013	269	21.07	7.77	17.41	0.00	581.67	221.60	42060
2013	270	22.59	10.88	19.37	0.18	221.67	71.12	41854
2013	271	16.31	9.54	14.45	0.06	397.50	146.97	41647
2013	272	14.17	7.58	12.36	0.01	80.83	41.93	41440
2013	273	11.87	8.31	10.89	2.65	46.67	50.10	41234
2013	274	9.21	7.36	8.70	0.89	465.83	326.50	41028
2013	275	15.44	7.43	13.24	0.00	411.67	262.31	40822
2013	276	12.16	4.93	10.17	0.00	477.27	323.06	40617
2013	277	11.09	-0.42	7.92	0.00	487.27	369.20	40412
2013	278	11.78	-1.30	8.18	0.00	389.09	143.03	40208
2013	279	10.76	-0.85	7.57	0.02	102.73	100.48	40003
2013	280	12.18	7.44	10.88	0.08	375.45	254.93	39800
2013	281	16.57	9.18	14.54	0.00	794.55	367.39	39597
2013	282	19.06	5.15	15.23	0.00	513.64	187.73	39394
2013	283	17.09	8.81	14.81	0.04	282.73	191.01	39192
2013	284	18.54	11.15	16.51	0.01	265.45	126.90	38991
2013	285	18.86	10.34	16.52	0.54	297.27	282.54	38790
2013	286	18.22	8.07	15.43	0.37	354.55	282.15	38590
2013	287	18.17	9.42	15.76	0.00	396.36	323.29	38391
2013	288	17.16	5.50	13.95	0.00	237.27	266.57	38193
2013	289	17.30	7.08	14.49	0.23	346.36	173.72	37995
2013	290	13.62	8.03	12.08	0.11	752.73	337.23	37799
2013	291	17.08	5.74	13.96	0.00	571.82	279.11	37603
2013	292	17.80	4.27	14.08	0.01	531.82	323.35	37408
2013	293	16.87	3.16	13.10	0.00	506.36	284.10	37214
2013	294	20.88	7.21	17.12	0.00	619.09	245.54	37022
2013	295	22.49	10.61	19.22	0.00	580.00	252.11	36830
2013	296	21.31	8.49	17.78	0.00	978.18	293.49	36640
2013	297	24.02	12.43	20.83	0.00	576.36	178.83	36451
2013	298	20.29	12.64	18.19	0.00	591.82	273.91	36263
2013	299	22.10	8.08	18.24	0.00	1016.75	251.81	36076
2013	300	20.10	8.59	16.93	0.00	812.62	229.78	35891
2013	301	20.95	7.90	17.36	0.00	916.53	238.12	35707
2013	302	23.05	11.64	19.91	0.00	955.60	213.55	35525
2013	303	19.16	9.35	16.46	0.73	696.78	146.68	35345
2013	304	13.06	8.36	11.77	0.00	281.64	106.71	35166
2013	305	14.70	3.33	11.57	0.00	587.41	213.48	34988
2013	306	16.06	5.24	13.08	0.00	618.58	201.12	34813
2013	307	16.75	5.31	13.60	0.00	666.13	204.73	34639
2013	308	18.31	8.12	15.51	1.62	679.90	139.81	34468
2013	309	10.74	7.83	9.94	0.95	84.00	39.35	34298
2013	310	11.07	7.32	10.04	1.26	123.33	114.54	34130
2013	311	10.73	2.49	8.46	0.01	344.44	230.55	33964
2013	312	15.71	5.94	13.02	0.00	285.56	219.23	33801
2013	313	16.82	3.70	13.21	0.00	165.56	26.75	33640
2013	314	14.19	7.10	12.24	2.74	110.00	87.69	33481
2013	315	9.55	4.80	8.24	1.17	215.56	49.26	33325
2013	316	8.54	4.82	7.52	0.21	282.22	105.75	33171
2013	317	8.53	4.74	7.49	0.00	117.78	26.01	33019
2013	318	7.61	5.89	7.14	0.19	155.56	81.10	32871
2013	319	7.32	3.10	6.16	0.20	47.78	28.37	32725
2013	320	6.97	4.35	6.25	0.00	60.00	169.73	32582
2013	321	10.44	0.62	7.74	0.00	92.22	191.61	32441
2013	322	10.11	0.16	7.37	0.00	106.67	86.60	32304
2013	323	7.75	3.56	6.60	0.00	73.33	54.52	32170
2013	324	7.54	4.81	6.79	0.39	16.67	26.81	32039
2013	325	7.76	6.03	7.28	0.99	15.56	42.27	31911
2013	326	7.89	3.88	6.79	0.19	45.56	37.14	31786
2013	327	7.15	4.95	6.55	0.86	46.67	53.90	31665
2013	328	8.91	5.83	8.06	2.29	28.89	29.67	31547
2013	329	8.00	6.13	7.49	1.69	300.00	59.40	31433
2013	330	6.29	0.47	4.69	0.00	235.56	201.90	31322
2013	331	2.78	-0.37	1.91	0.01	216.67	151.52	31215
2013	332	2.55	-1.29	1.49	0.00	284.44	241.36	31112
2013	333	4.01	-5.33	1.44	0.00	364.44	189.40	31012
2013	334	7.64	-3.49	4.58	0.00	168.89	106.08	30917
2013	335	5.51	-1.01	3.72	0.00	217.78	231.55	30825
2013	336	6.89	-3.57	4.01	0.00	223.33	169.72	30738
2013	337	7.12	-2.90	4.36	0.00	153.33	193.61	30654
2013	338	4.84	-4.75	2.20	0.00	147.78	214.61	30575
2013	339	3.81	-4.76	1.45	0.00	130.00	155.94	30500
2013	340	4.88	-4.61	2.27	0.00	374.44	194.59	30430
2013	341	7.39	-1.27	5.01	0.00	230.00	143.76	30363
2013	342	4.63	-2.14	2.77	0.01	223.21	100.73	30301
2013	343	8.06	-0.91	5.59	0.00	337.28	153.96	30244
2013	344	7.28	-2.16	4.68	0.00	195.56	92.40	30191
2013	345	9.71	3.70	8.06	0.01	264.44	57.58	30143
2013	346	4.89	-0.25	3.48	0.00	152.22	48.16	30099
2013	347	3.59	0.25	2.67	0.00	10.00	27.05	30060
2013	348	1.79	-1.27	0.95	0.01	97.58	27.47	30025
2013	349	0.14	-1.47	-0.30	0.00	48.96	50.58	29995
2013	350	0.02	-2.01	-0.54	0.00	5.00	64.22	29970
2013	351	-0.17	-3.41	-1.06	0.00	10.00	33.81	29950
2013	352	-2.11	-3.84	-2.59	0.00	10.00	15.87	29934
2013	353	-2.26	-3.45	-2.59	0.00	6.25	82.51	29924
2013	354	-0.01	-4.72	-1.31	0.00	124.82	93.44	29918
2013	355	2.16	-2.77	0.80	0.00	149.25	115.46	29916
2013	356	4.79	-2.07	2.90	0.01	227.69	32.86	29920
2013	357	4.49	0.43	3.37	0.01	147.77	69.86	29928
2013	358	3.16	-0.10	2.26	0.00	112.58	177.49	29941
2013	359	11.86	-0.35	8.50	0.00	514.15	83.97	29959
2013	360	12.64	6.98	11.08	0.00	319.29	51.73	29982
2013	361	11.30	7.25	10.19	0.97	224.01	80.89	30009
2013	362	8.34	4.32	7.23	0.01	186.18	165.86	30042
2013	363	10.29	1.00	7.74	0.00	396.52	57.32	30078
2013	364	7.75	2.41	6.28	0.08	226.67	92.02	30120
2013	365	6.99	3.28	5.97	0.03	160.05	40.67	30166
2014	1	4.97	2.58	4.31	0.02	95.78	16.86	30217
2014	2	4.85	3.08	4.36	0.00	72.14	139.42	30272
2014	3	8.89	2.50	7.13	0.00	279.49	183.19	30331
2014	4	11.60	-0.17	8.36	0.00	495.88	96.46	30396
2014	5	8.57	-0.85	5.98	0.04	359.42	49.36	30464
2014	6	11.55	6.91	10.27	0.28	254.81	161.95	30537
2014	7	10.09	3.13	8.18	0.00	320.63	52.91	30614
2014	8	5.85	1.84	4.75	0.01	159.29	37.94	30695
2014	9	4.20	1.99	3.59	0.01	85.00	59.68	30781
2014	10	4.30	0.47	3.25	0.01	139.00	105.29	30870
2014	11	7.82	1.88	6.19	0.00	247.42	43.98	30964
2014	12	6.09	0.99	4.69	0.00	197.05	218.80	31061
2014	13	9.03	-0.42	6.43	0.00	370.68	215.94	31162
2014	14	7.58	-2.24	4.88	0.00	346.56	58.23	31268
2014	15	8.75	-0.56	6.19	0.36	360.78	126.67	31376
2014	16	7.27	2.05	5.83	0.00	216.08	157.85	31489
2014	17	8.40	-0.27	6.02	0.00	336.92	123.46	31605
2014	18	12.08	4.25	9.93	0.00	393.94	118.45	31724
2014	19	13.00	3.65	10.43	0.00	469.86	78.67	31847
2014	20	11.93	5.75	10.23	0.28	327.75	79.30	31974
2014	21	11.23	5.61	9.68	0.01	291.85	137.15	32103
2014	22	9.45	3.85	7.91	0.00	261.27	67.89	32236
2014	23	5.03	1.95	4.18	0.00	120.56	40.83	32372
2014	24	3.50	0.41	2.65	0.06	109.79	36.06	32510
2014	25	0.82	-1.63	0.15	1.18	75.23	244.67	32652
2014	26	-0.01	-5.16	-1.43	0.00	134.02	109.95	32797
2014	27	-4.27	-10.50	-5.98	0.03	116.08	98.26	32944
2014	28	-3.63	-7.73	-4.76	0.03	87.45	77.64	33094
2014	29	-1.62	-4.67	-2.46	0.18	77.85	105.80	33247
2014	30	-1.02	-3.99	-1.84	0.06	79.14	70.84	33402
2014	31	-0.90	-5.64	-2.20	0.10	118.27	74.60	33559
2014	32	-2.39	-5.23	-3.17	0.41	69.47	70.53	33719
2014	33	-0.50	-2.95	-1.17	0.89	69.03	53.81	33882
2014	34	-0.25	-3.27	-1.08	0.00	84.48	60.47	34046
2014	35	-0.80	-2.73	-1.33	0.00	54.48	48.44	34213
2014	36	0.30	-2.72	-0.53	0.00	87.58	87.02	34382
2014	37	2.16	-1.36	1.19	0.01	112.83	89.49	34552
2014	38	9.33	-2.05	6.20	0.63	422.32	215.63	34725
2014	39	7.97	2.74	6.53	0.23	226.00	89.32	34900
2014	40	9.48	1.47	7.28	1.59	341.47	49.87	35076
2014	41	7.89	-1.23	5.38	0.08	337.29	200.30	35254
2014	42	7.88	4.88	7.05	1.16	140.50	47.88	35434
2014	43	5.66	0.61	4.27	0.47	190.29	65.06	35615
2014	44	8.54	-2.84	5.41	0.63	401.74	252.58	35798
2014	45	9.76	2.95	7.89	0.00	309.21	222.83	35983
2014	46	12.15	0.38	8.91	0.00	513.00	279.15	36169
2014	47	12.31	3.46	9.88	1.79	434.59	161.49	36356
2014	48	6.00	2.42	5.02	0.62	145.99	66.02	36544
2014	49	5.67	-0.12	4.08	0.00	212.04	92.90	36734
2014	50	9.87	4.42	8.37	0.65	262.36	61.68	36925
2014	51	10.71	4.22	8.93	0.00	316.07	163.25	37117
2014	52	9.13	3.44	7.57	0.02	259.43	71.60	37310
2014	53	7.37	4.47	6.57	0.55	132.15	56.04	37505
2014	54	9.14	3.23	7.51	0.04	267.37	68.56	37700
2014	55	11.55	0.93	8.63	0.00	465.83	275.43	37896
2014	56	8.87	-0.20	6.38	0.00	357.42	221.90	38093
2014	57	12.81	-0.28	9.21	0.00	565.51	211.13	38291
2014	58	12.06	2.23	9.36	0.00	458.29	277.80	38490
2014	59	11.20	2.57	8.83	0.01	399.40	255.25	38689
2014	60	13.52	0.40	9.91	0.00	591.42	257.07	38890
2014	61	10.22	2.78	8.17	0.00	339.24	198.76	39091
2014	62	7.82	1.80	6.16	0.47	249.98	143.79	39292
2014	63	9.39	4.11	7.94	0.00	248.45	117.01	39495
2014	64	11.78	4.92	9.89	0.01	351.49	144.73	39697
2014	65	9.90	5.35	8.65	0.00	227.06	134.72	39901
2014	66	9.93	2.97	8.02	0.00	317.51	295.62	40105
2014	67	12.44	1.42	9.41	0.00	502.89	267.36	40309
2014	68	12.05	1.64	9.19	0.00	474.59	371.75	40514
2014	69	11.14	1.28	8.43	0.00	434.00	277.69	40719
2014	70	14.79	-0.86	10.49	0.00	694.34	403.36	40924
2014	71	15.34	2.04	11.68	0.00	665.27	363.22	41130
2014	72	16.07	0.25	11.72	0.00	754.21	379.56	41336
2014	73	18.76	0.18	13.65	0.00	943.12	389.20	41543
2014	74	17.10	2.54	13.10	0.00	773.22	156.71	41749
2014	75	19.50	6.29	15.87	0.00	848.32	207.60	41956
2014	76	21.50	5.76	17.17	0.00	1038.56	401.98	42163
2014	77	19.43	3.64	15.09	0.00	921.47	380.35	42370
2014	78	17.41	7.82	14.77	0.00	620.46	334.12	42578
2014	79	20.22	3.05	15.50	0.00	999.66	428.74	42785
2014	80	21.47	4.97	16.93	0.00	1058.30	404.17	42992
2014	81	19.38	7.86	16.21	0.00	779.99	356.68	43200
2014	82	15.69	10.07	14.14	0.75	379.68	151.01	43407
2014	83	12.80	3.43	10.22	0.01	464.86	216.76	43615
2014	84	10.44	-0.53	7.42	0.03	443.31	286.38	43822
2014	85	12.37	0.95	9.23	0.00	511.20	294.30	44029
2014	86	13.99	1.39	10.53	0.00	595.91	223.45	44236
2014	87	17.16	5.05	13.83	0.00	705.16	398.00	44443
2014	88	19.36	3.00	14.86	0.00	931.70	419.23	44650
2014	89	21.00	3.21	16.11	0.00	1060.98	430.87	44857
2014	90	20.26	3.90	15.76	0.00	982.48	310.10	45063
2014	91	19.52	6.62	15.97	0.00	838.54	388.54	45270
2014	92	19.99	5.24	15.93	0.00	922.96	395.24	45475
2014	93	20.36	5.47	16.27	0.00	947.36	328.82	45681
2014	94	19.92	7.49	16.50	0.00	840.80	339.59	45886
2014	95	18.43	9.94	16.10	0.01	606.00	266.62	46091
2014	96	19.52	9.39	16.73	0.74	726.26	264.15	46295
2014	97	20.52	6.83	16.76	0.00	917.09	440.47	46499
2014	98	23.74	7.34	19.23	0.37	1203.00	416.40	46702
2014	99	18.02	7.65	15.17	0.00	676.01	338.89	46905
2014	100	12.71	2.60	9.93	0.36	485.26	141.55	47107
2014	101	14.75	2.00	11.24	0.00	627.98	490.32	47309
2014	102	15.29	2.14	11.67	0.00	659.40	346.26	47510
2014	103	16.58	2.44	12.69	0.06	739.06	289.45	47710
2014	104	19.25	4.31	15.14	0.42	889.14	289.03	47910
2014	105	10.36	3.48	8.47	0.01	323.20	264.82	48108
2014	106	11.68	3.77	9.50	0.01	387.29	270.74	48306
2014	107	11.89	3.88	9.69	0.00	395.72	199.61	48504
2014	108	18.53	2.48	14.12	0.00	879.79	486.66	48700
2014	109	18.40	8.51	15.68	0.62	670.46	314.95	48895
2014	110	14.76	7.56	12.78	0.38	435.00	196.81	49089
2014	111	18.32	8.33	15.57	0.78	671.72	217.55	49282
2014	112	19.69	9.98	17.02	0.00	713.45	341.37	49475
2014	113	19.94	9.10	16.96	0.00	776.42	370.25	49666
2014	114	20.59	12.06	18.24	0.43	687.46	316.14	49855
2014	115	17.16	12.30	15.82	1.80	367.14	67.08	50044
2014	116	17.27	11.33	15.64	0.01	434.47	170.46	50231
2014	117	20.63	7.14	16.92	0.00	915.87	473.94	50417
2014	118	20.74	9.02	17.52	0.05	852.05	335.00	50601
2014	119	19.19	8.96	16.38	0.04	717.12	344.05	50784
2014	120	21.72	8.86	18.18	0.05	950.17	488.57	50966
2014	121	21.86	8.14	18.09	0.00	991.72	476.93	51145
2014	122	22.28	7.00	18.08	0.04	1071.67	361.45	51324
2014	123	14.88	8.29	13.07	0.07	410.00	149.54	51500
2014	124	15.18	6.16	12.70	0.01	522.68	495.34	51674
2014	125	15.73	4.15	12.55	0.00	631.45	527.01	51847
2014	126	20.15	2.90	15.41	0.00	997.35	491.27	52018
2014	127	21.33	7.31	17.47	0.85	972.82	383.75	52187
2014	128	20.65	9.42	17.56	0.10	826.31	394.62	52353
2014	129	22.76	7.79	18.64	0.69	1090.85	419.39	52518
2014	130	22.02	11.47	19.12	0.22	859.05	445.41	52680
2014	131	19.20	8.50	16.26	2.38	738.11	132.63	52840
2014	132	17.99	5.78	14.63	0.58	743.91	378.30	52998
2014	133	12.46	8.06	11.25	1.23	257.34	132.05	53153
2014	134	14.77	6.54	12.51	0.09	479.12	329.23	53306
2014	135	11.87	7.59	10.69	0.86	242.80	136.11	53456
2014	136	10.77	8.46	10.13	0.60	132.15	47.34	53603
2014	137	14.76	7.81	12.85	0.31	423.75	205.89	53748
2014	138	18.51	9.53	16.04	0.92	632.81	300.10	53889
2014	139	22.80	7.86	18.69	0.01	1092.29	373.07	54028
2014	140	24.19	8.99	20.01	0.00	1191.89	493.69	54164
2014	141	25.67	9.99	21.36	0.00	1314.57	493.30	54297
2014	142	27.10	12.93	23.20	0.00	1352.89	485.93	54426
2014	143	28.18	14.23	24.34	0.16	1423.18	342.33	54552
2014	144	26.51	15.45	23.47	0.02	1134.46	457.22	54675
2014	145	25.13	14.75	22.28	0.01	1010.32	430.10	54795
2014	146	25.81	13.08	22.31	0.13	1188.21	336.10	54911
2014	147	24.78	12.98	21.54	0.18	1073.76	466.77	55023
2014	148	19.59	11.38	17.33	0.04	632.34	234.02	55132
2014	149	19.89	11.32	17.53	0.13	662.96	234.89	55237
2014	150	16.04	8.99	14.10	0.00	461.55	308.80	55339
2014	151	17.45	7.17	14.62	0.02	650.34	242.01	55436
2014	152	20.66	10.13	17.76	0.00	794.48	213.39	55530
2014	153	21.14	9.31	17.89	0.01	876.55	408.30	55619
2014	154	21.08	8.56	17.64	0.59	902.47	349.54	55705
2014	155	23.46	7.60	19.10	0.00	1166.43	503.36	55786
2014	156	22.04	11.38	19.11	0.01	865.68	315.61	55863
2014	157	25.82	9.83	21.42	0.00	1337.75	500.01	55936
2014	158	28.35	11.29	23.66	0.00	1584.63	501.59	56004
2014	159	30.16	13.89	25.69	0.00	1712.07	501.98	56068
2014	160	31.18	14.72	26.65	0.00	1818.56	480.38	56128
2014	161	32.33	15.17	27.61	0.00	1971.06	397.62	56183
2014	162	33.27	16.04	28.53	0.00	2075.77	500.28	56234
2014	163	29.21	18.69	26.32	0.11	1269.75	358.09	56280
2014	164	25.89	16.07	23.19	0.10	1015.20	327.19	56321
2014	165	23.39	14.42	20.92	0.01	832.35	416.04	56358
2014	166	22.84	10.51	19.45	0.00	988.73	468.31	56390
2014	167	22.41	10.58	19.16	0.00	942.03	462.93	56418
2014	168	19.67	12.94	17.82	0.00	548.50	165.08	56440
2014	169	24.98	11.79	21.35	0.05	1157.74	449.83	56458
2014	170	26.19	10.61	21.91	0.04	1349.19	443.35	56472
2014	171	21.46	12.53	19.00	0.31	745.32	294.58	56480
2014	172	22.07	9.30	18.56	0.00	965.53	410.35	56484
2014	173	26.64	9.89	22.03	0.00	1429.91	511.24	56482
2014	174	27.12	13.81	23.46	1.80	1309.23	450.99	56476
2014	175	23.62	15.48	21.38	0.39	786.92	133.58	56466
2014	176	19.33	13.00	17.59	0.23	513.28	175.04	56450
2014	177	21.93	9.66	18.56	0.00	936.49	532.86	56430
2014	178	24.49	11.57	20.94	0.00	1113.69	458.20	56405
2014	179	27.09	12.19	22.99	0.01	1387.54	343.73	56375
2014	180	29.71	15.34	25.76	2.50	1570.54	502.41	56341
2014	181	23.71	12.51	20.63	0.86	980.25	251.99	56301
2014	182	23.38	9.36	19.52	0.00	1093.53	454.35	56258
2014	183	26.44	11.28	22.27	0.53	1350.13	429.28	56209
2014	184	25.46	13.30	22.12	0.00	1134.94	490.49	56156
2014	185	26.15	11.30	22.07	0.00	1315.06	511.04	56099
2014	186	26.29	14.68	23.10	0.17	1155.23	341.78	56037
2014	187	29.60	14.65	25.49	0.00	1593.71	495.59	55971
2014	188	31.07	15.46	26.78	0.00	1762.45	512.73	55900
2014	189	27.56	18.06	24.95	0.03	1086.06	420.86	55825
2014	190	22.75	14.90	20.59	0.67	730.63	285.40	55746
2014	191	17.74	12.24	16.23	1.02	419.74	142.76	55663
2014	192	20.53	13.18	18.51	0.28	615.19	152.96	55575
2014	193	26.73	13.88	23.20	0.06	1256.47	384.40	55484
2014	194	25.29	13.98	22.18	0.24	1076.22	417.42	55388
2014	195	25.70	13.61	22.38	0.62	1146.11	368.49	55289
2014	196	28.31	15.26	24.72	0.02	1381.28	487.40	55186
2014	197	29.34	17.28	26.02	0.00	1393.72	413.14	55079
2014	198	29.59	17.22	26.19	0.04	1434.11	482.93	54968
2014	199	29.25	14.95	25.32	0.00	1528.15	484.71	54854
2014	200	30.31	16.10	26.40	0.00	1612.23	468.40	54736
2014	201	30.94	16.46	26.96	0.00	1684.18	469.07	54615
2014	202	29.70	18.28	26.56	0.00	1373.69	311.34	54490
2014	203	22.82	15.29	20.75	1.42	711.31	132.43	54362
2014	204	26.91	17.54	24.33	0.03	1039.00	471.66	54231
2014	205	26.76	14.37	23.35	0.00	1232.29	479.02	54097
2014	206	26.91	16.26	23.98	0.16	1131.71	302.48	53960
2014	207	28.43	15.45	24.86	0.01	1386.01	423.45	53819
2014	208	25.73	15.87	23.02	0.59	1009.16	276.26	53676
2014	209	24.11	17.59	22.32	0.82	683.96	181.11	53530
2014	210	27.08	16.68	24.22	0.01	624.00	280.33	53382
2014	211	27.74	16.18	24.56	2.78	582.14	279.41	53230
2014	212	25.42	16.56	22.98	0.23	514.29	239.43	53076
2014	213	26.31	17.90	24.00	0.00	762.86	359.63	52920
2014	214	28.69	16.63	25.37	0.00	1085.71	402.27	52761
2014	215	29.09	17.16	25.81	0.00	1061.43	450.67	52600
2014	216	26.79	15.46	23.67	0.05	831.43	370.91	52437
2014	217	25.26	16.10	22.74	0.02	968.57	360.00	52271
2014	218	23.35	17.71	21.80	0.00	937.14	214.79	52103
2014	219	25.50	17.23	23.23	0.00	1166.43	365.09	51934
2014	220	28.25	13.63	24.23	0.00	1423.57	483.07	51762
2014	221	29.90	14.94	25.79	1.22	1278.57	440.36	51588
2014	222	28.62	16.63	25.32	0.00	1020.00	435.41	51413
2014	223	29.78	17.22	26.33	1.31	1147.14	443.02	51235
2014	224	22.01	16.60	20.52	1.60	505.71	183.37	51057
2014	225	25.60	14.66	22.59	3.26	565.00	334.25	50876
2014	226	22.37	13.69	19.98	2.64	233.57	147.27	50694
2014	227	21.64	13.43	19.38	0.17	575.00	209.71	50510
2014	228	21.84	10.88	18.83	0.00	837.14	360.78	50325
2014	229	22.90	9.73	19.28	0.00	1016.43	455.16	50138
2014	230	24.38	10.29	20.51	0.00	987.14	461.93	49951
2014	231	23.87	11.88	20.57	0.02	685.00	307.20	49761
2014	232	19.89	14.75	18.48	1.88	355.00	194.85	49571
2014	233	21.42	12.15	18.87	0.09	732.86	443.05	49380
2014	234	21.86	11.08	18.90	0.00	608.57	264.49	49187
2014	235	21.45	12.51	18.99	0.96	373.57	218.25	48993
2014	236	21.29	13.17	19.06	0.13	779.29	312.52	48798
2014	237	20.51	8.83	17.30	0.00	801.43	420.49	48603
2014	238	21.46	10.82	18.53	0.03	583.57	208.77	48406
2014	239	23.23	14.53	20.84	0.12	466.43	272.13	48208
2014	240	22.34	7.85	18.36	0.00	977.14	438.44	48010
2014	241	23.37	8.81	19.37	0.00	915.71	450.11	47811
2014	242	24.52	10.79	20.74	0.02	840.00	373.40	47611
2014	243	22.42	14.69	20.29	2.26	472.86	216.32	47410
2014	244	18.96	11.98	17.04	1.81	151.43	60.92	47209
2014	245	15.23	13.16	14.66	2.53	190.71	47.74	47007
2014	246	20.01	13.89	18.33	0.03	454.62	262.62	46805
2014	247	22.69	15.59	20.74	0.34	575.38	189.87	46601
2014	248	24.49	16.19	22.21	0.57	609.23	323.99	46398
2014	249	20.80	16.23	19.54	0.06	306.15	136.04	46194
2014	250	21.61	14.97	19.78	0.00	501.54	221.72	45989
2014	251	24.62	12.60	21.31	0.00	786.92	393.66	45784
2014	252	25.97	13.37	22.50	0.32	676.15	346.91	45579
2014	253	19.10	15.17	18.02	0.31	289.23	118.29	45373
2014	254	15.95	12.83	15.09	2.76	158.46	45.96	45167
2014	255	15.40	12.23	14.53	3.74	158.46	114.55	44961
2014	256	20.22	12.85	18.19	0.09	381.54	224.60	44755
2014	257	17.77	13.44	16.58	0.72	146.67	108.02	44548
2014	258	19.59	13.61	17.95	0.09	265.83	170.37	44341
2014	259	20.66	13.33	18.64	0.08	430.83	231.16	44134
2014	260	21.36	11.00	18.51	0.00	665.83	366.53	43927
2014	261	21.33	8.41	17.78	0.00	751.67	409.68	43719
2014	262	23.96	11.17	20.44	0.00	733.33	378.19	43512
2014	263	24.01	13.09	21.01	0.00	573.33	302.16	43304
2014	264	25.73	15.36	22.88	1.91	905.00	398.95	43097
2014	265	18.49	11.78	16.64	0.01	680.83	255.05	42890
2014	266	16.62	7.40	14.08	0.00	689.17	279.91	42682
2014	267	18.25	5.35	14.70	0.00	616.67	400.53	42475
2014	268	15.71	7.60	13.48	0.07	275.00	155.85	42268
2014	269	14.02	8.46	12.49	0.20	227.50	47.57	42060
2014	270	18.19	11.48	16.34	0.01	300.83	174.70	41854
2014	271	20.90	8.22	17.41	0.00	671.67	405.42	41647
2014	272	21.51	8.46	17.92	0.00	683.33	392.59	41440
2014	273	17.32	8.52	14.90	0.00	92.50	120.88	41234
2014	274	18.62	10.51	16.39	0.12	215.83	152.81	41028
2014	275	18.07	13.23	16.74	0.20	312.50	118.11	40822
2014	276	17.79	10.61	15.82	0.00	349.09	251.45	40617
2014	277	15.49	8.96	13.69	0.05	200.91	94.67	40412
2014	278	17.85	10.41	15.80	0.01	500.00	266.23	40208
2014	279	17.82	6.06	14.59	0.00	470.91	311.16	40003
2014	280	18.10	8.63	15.50	0.00	273.64	209.83	39800
2014	281	22.22	10.71	19.05	0.00	580.00	250.91	39597
2014	282	24.76	13.96	21.79	0.00	1025.45	376.59	39394
2014	283	24.06	12.59	20.91	0.00	777.27	372.39	39192
2014	284	25.10	11.19	21.27	0.00	925.45	355.51	38991
2014	285	22.85	11.19	19.64	0.00	648.18	332.80	38790
2014	286	25.03	11.85	21.41	0.00	976.36	340.59	38590
2014	287	24.28	14.14	21.49	0.01	1117.27	306.96	38391
2014	288	18.73	11.45	16.73	0.05	292.73	158.62	38193
2014	289	22.09	11.87	19.28	0.12	548.18	289.71	37995
2014	290	19.05	12.75	17.32	0.17	141.82	101.30	37799
2014	291	20.09	7.96	16.75	0.00	623.64	308.52	37603
2014	292	20.85	8.11	17.35	0.00	708.18	338.79	37408
2014	293	23.36	8.81	19.36	0.00	753.64	311.01	37214
2014	294	17.63	12.54	16.23	6.07	145.45	97.43	37022
2014	295	14.68	6.15	12.33	0.31	230.00	117.09	36830
2014	296	9.48	5.96	8.51	0.50	184.55	47.67	36640
2014	297	9.27	6.99	8.64	0.18	259.09	30.28	36451
2014	298	7.96	5.08	7.17	0.02	80.91	41.54	36263
2014	299	8.59	3.50	7.19	0.00	120.91	104.14	36076
2014	300	8.88	3.41	7.38	0.00	168.18	64.38	35891
2014	301	9.59	-0.53	6.81	0.00	213.00	293.95	35707
2014	302	9.39	-0.76	6.60	0.00	210.00	194.79	35525
2014	303	9.18	3.79	7.70	0.00	257.00	60.57	35345
2014	304	11.56	3.58	9.37	0.00	242.00	87.42	35166
2014	305	14.52	3.48	11.48	0.00	423.00	263.69	34988
2014	306	13.56	3.12	10.69	0.00	382.00	277.86	34813
2014	307	10.93	2.65	8.65	0.00	168.00	138.03	34639
2014	308	17.82	7.44	14.97	0.00	706.00	240.10	34468
2014	309	19.98	9.37	17.06	0.29	887.00	208.51	34298
2014	310	16.43	11.32	15.02	0.13	201.11	87.89	34130
2014	311	16.76	10.06	14.92	0.44	205.56	112.78	33964
2014	312	14.99	9.07	13.36	0.03	270.00	74.55	33801
2014	313	12.96	8.17	11.64	0.00	204.44	127.81	33640
2014	314	18.15	8.48	15.49	0.00	505.56	255.57	33481
2014	315	18.07	9.56	15.73	0.00	636.67	199.62	33325
2014	316	14.50	8.14	12.75	0.02	206.67	132.42	33171
2014	317	11.66	8.09	10.68	0.01	160.00	62.95	33019
2014	318	13.99	9.86	12.85	0.00	230.00	105.12	32871
2014	319	12.69	9.35	11.77	0.03	181.11	92.96	32725
2014	320	14.05	8.13	12.42	0.00	220.00	199.75	32582
2014	321	10.40	7.92	9.72	1.41	37.78	65.35	32441
2014	322	13.95	7.28	12.12	0.01	344.44	170.47	32304
2014	323	12.44	5.20	10.45	0.02	354.44	207.97	32170
2014	324	10.92	4.65	9.20	0.00	308.89	209.77	32039
2014	325	8.59	2.16	6.82	0.00	305.56	134.02	31911
2014	326	9.10	0.02	6.60	0.00	261.11	198.60	31786
2014	327	7.38	-0.28	5.27	0.00	205.56	180.38	31665
2014	328	4.98	1.50	4.02	0.02	135.56	33.86	31547
2014	329	4.79	1.52	3.89	0.01	96.67	42.74	31433
2014	330	5.17	1.14	4.06	0.00	205.56	93.98	31322
2014	331	3.36	0.69	2.63	0.00	191.11	76.62	31215
2014	332	2.43	0.71	1.96	0.10	20.00	28.61	31112
2014	333	2.90	2.00	2.65	0.08	10.00	25.69	31012
2014	334	3.17	2.18	2.90	0.35	10.00	30.82	30917
2014	335	2.58	1.39	2.25	0.92	21.11	10.20	30825
2014	336	1.86	0.22	1.41	0.24	21.11	22.72	30738
2014	337	3.69	1.15	2.99	0.10	28.89	23.80	30654
2014	338	4.48	3.12	4.11	0.15	65.56	28.96	30575
2014	339	5.00	3.56	4.60	0.09	44.44	36.85	30500
2014	340	5.24	4.04	4.91	1.66	20.00	13.50	30430
2014	341	5.40	4.13	5.05	1.04	76.67	32.36	30363
2014	342	6.55	3.03	5.58	0.01	148.89	103.73	30301
2014	343	4.28	1.81	3.60	0.00	250.00	73.83	30244
2014	344	4.01	-1.79	2.42	0.00	252.22	198.49	30191
2014	345	5.32	-2.47	3.18	0.00	292.22	111.57	30143
2014	346	7.73	-1.64	5.15	0.00	334.44	200.95	30099
2014	347	11.00	0.37	8.08	0.00	592.22	163.49	30060
2014	348	7.40	-0.32	5.28	0.00	118.75	65.99	30025
2014	349	4.44	-2.09	2.64	0.00	345.00	62.21	29995
2014	350	4.72	-1.79	2.93	0.28	237.50	55.59	29970
2014	351	8.21	1.86	6.46	0.00	247.50	159.61	29950
2014	352	9.41	1.64	7.27	0.00	816.25	122.90	29934
2014	353	13.45	3.66	10.76	0.00	886.25	188.94	29924
2014	354	11.92	2.98	9.46	0.01	858.75	189.15	29918
2014	355	9.58	0.89	7.19	0.00	1036.25	202.43	29916
2014	356	8.34	-2.06	5.48	0.00	948.75	117.89	29920
2014	357	12.32	2.34	9.58	0.00	1206.25	132.03	29928
2014	358	8.82	-1.92	5.87	0.00	795.00	160.93	29941
2014	359	8.49	-2.18	5.56	0.00	580.00	173.78	29959
2014	360	5.66	-1.27	3.75	0.23	605.00	151.72	29982
2014	361	0.55	-3.87	-0.67	0.28	235.00	108.45	30009
2014	362	0.00	-5.57	-1.53	0.07	90.00	56.99	30042
2014	363	-1.12	-6.59	-2.62	0.00	288.75	182.77	30078
2014	364	-2.55	-8.65	-4.23	0.00	165.00	86.89	30120
2014	365	-3.86	-14.07	-6.67	0.00	163.75	247.17	30166
2015	1	0.10	-6.40	-1.69	0.00	161.14	63.15	30217
2015	2	6.10	-3.20	3.54	0.28	212.50	133.17	30272
2015	3	5.80	-1.50	3.79	0.11	177.50	143.03	30331
2015	4	6.90	-0.60	4.84	0.33	367.50	209.28	30396
2015	5	3.50	-0.40	2.43	0.00	206.25	70.11	30464
2015	6	5.20	-0.60	3.61	0.00	228.75	185.36	30537
2015	7	-1.00	-3.80	-1.77	0.00	160.00	93.68	30614
2015	8	0.60	-4.10	-0.69	0.00	111.25	99.18	30695
2015	9	6.00	-2.30	3.72	0.02	158.75	64.27	30781
2015	10	14.00	1.10	10.45	0.00	578.75	160.15	30870
2015	11	6.40	2.00	5.19	0.58	165.00	14.49	30964
2015	12	8.70	0.60	6.47	0.00	464.44	173.84	31061
2015	13	11.70	-1.30	8.13	0.00	541.11	207.09	31162
2015	14	7.50	-1.50	5.03	0.09	256.67	187.79	31268
2015	15	8.60	-0.80	6.01	0.00	248.89	186.14	31376
2015	16	13.60	-0.50	9.72	0.00	600.00	190.64	31489
2015	17	11.40	6.00	9.91	0.02	610.00	56.68	31605
2015	18	9.40	1.40	7.20	0.00	154.44	70.84	31724
2015	19	6.50	1.00	4.99	0.00	62.22	101.09	31847
2015	20	4.80	0.20	3.54	0.24	91.00	80.61	31974
2015	21	3.80	2.00	3.30	0.02	46.00	60.44	32103
2015	22	6.40	3.50	5.60	0.02	69.00	53.16	32236
2015	23	6.90	5.30	6.46	0.87	153.00	29.56	32372
2015	24	5.60	1.30	4.42	0.36	70.00	27.78	32510
2015	25	4.10	1.50	3.38	0.00	195.00	56.50	32652
2015	26	3.20	-1.30	1.96	0.00	242.00	193.86	32797
2015	27	1.70	-2.70	0.49	0.05	103.00	57.22	32944
2015	28	5.80	-3.90	3.13	0.00	238.00	263.36	33094
2015	29	0.80	-1.80	0.09	0.20	75.00	35.77	33247
2015	30	1.90	-4.20	0.22	1.61	28.00	23.48	33402
2015	31	5.40	-6.60	2.10	0.00	166.00	276.61	33559
2015	32	2.00	-7.30	-0.56	0.62	71.00	101.09	33719
2015	33	5.10	-6.90	1.80	0.01	139.00	300.56	33882
2015	34	1.30	-8.00	-1.26	0.01	128.00	204.18	34046
2015	35	1.50	-0.30	1.00	0.00	75.00	50.48	34213
2015	36	1.30	-2.00	0.39	0.03	119.00	112.34	34382
2015	37	0.40	-2.00	-0.26	0.00	169.00	75.30	34552
2015	38	1.30	-4.60	-0.32	0.00	205.00	275.35	34725
2015	39	2.90	-6.80	0.23	0.02	198.00	167.07	34900
2015	40	0.80	-1.60	0.14	0.31	110.00	63.33	35076
2015	41	4.60	-1.10	3.03	0.02	284.00	77.83	35254
2015	42	5.00	0.90	3.87	0.00	174.00	126.94	35434
2015	43	6.10	0.40	4.53	0.00	195.00	200.24	35615
2015	44	5.70	-2.80	3.36	0.00	228.00	302.05	35798
2015	45	6.50	-2.30	4.08	0.00	189.00	97.33	35983
2015	46	11.10	-0.30	7.96	0.00	353.00	187.96	36169
2015	47	10.40	-2.10	6.96	0.00	364.00	316.51	36356
2015	48	5.10	-2.60	2.98	0.00	188.00	231.05	36544
2015	49	5.00	-0.10	3.60	0.00	228.00	187.30	36734
2015	50	8.50	-2.00	5.61	0.00	335.00	297.12	36925
2015	51	11.10	-2.60	7.33	0.00	465.00	315.70	37117
2015	52	11.80	-0.90	8.31	0.00	612.00	320.45	37310
2015	53	8.00	2.20	6.40	1.12	297.00	66.41	37505
2015	54	6.80	3.50	5.89	0.22	80.00	71.13	37700
2015	55	5.90	4.50	5.52	1.61	47.27	48.07	37896
2015	56	7.70	4.60	6.85	0.00	342.73	100.95	38093
2015	57	10.40	5.20	8.97	0.00	369.09	205.43	38291
2015	58	10.10	-2.00	6.77	0.00	270.91	255.51	38490
2015	59	9.80	-0.70	6.91	0.00	356.36	239.02	38689
2015	60	10.50	-2.50	6.93	0.00	388.18	250.00	38890
2015	61	11.80	2.40	9.21	0.44	400.91	98.88	39091
2015	62	11.80	0.20	8.61	0.00	689.17	340.77	39292
2015	63	11.00	-2.10	7.40	0.00	453.33	230.40	39495
2015	64	8.00	2.80	6.57	0.00	381.67	244.63	39697
2015	65	7.30	1.50	5.71	0.00	408.33	302.72	39901
2015	66	10.20	-0.10	7.37	0.00	395.00	385.96	40105
2015	67	10.80	-4.50	6.59	0.00	528.33	398.38	40309
2015	68	11.00	-2.10	7.40	0.00	542.50	353.20	40514
2015	69	14.00	-3.10	9.30	0.00	676.67	380.98	40719
2015	70	9.40	-1.10	6.51	0.14	305.83	136.62	40924
2015	71	8.50	3.30	7.07	0.00	435.00	198.48	41130
2015	72	6.40	4.40	5.85	0.00	290.83	85.83	41336
2015	73	8.80	3.80	7.43	0.00	306.67	147.96	41543
2015	74	8.50	-0.10	6.13	0.10	225.00	126.38	41749
2015	75	12.70	1.40	9.59	0.00	402.50	305.58	41956
2015	76	13.30	3.00	10.47	0.00	528.33	310.03	42163
2015	77	12.80	-1.50	8.87	0.00	623.33	392.35	42370
2015	78	12.00	-2.50	8.01	0.00	533.33	380.32	42578
2015	79	13.00	-3.10	8.57	0.00	560.83	349.98	42785
2015	80	17.10	-1.80	11.90	0.00	823.33	405.64	42992
2015	81	13.30	3.60	10.63	0.00	506.67	341.21	43200
2015	82	13.00	-2.20	8.82	0.00	531.67	396.12	43407
2015	83	15.70	-1.60	10.94	0.00	690.00	374.45	43615
2015	84	15.20	1.40	11.40	0.90	560.83	182.80	43822
2015	85	18.80	7.90	15.80	0.38	618.33	353.34	44029
2015	86	12.80	8.00	11.48	0.12	387.50	87.96	44236
2015	87	12.20	7.30	10.85	0.00	657.50	341.16	44443
2015	88	15.60	0.60	11.48	0.00	723.33	337.51	44650
2015	89	15.60	7.50	13.37	0.20	532.50	194.65	44857
2015	90	18.60	0.70	13.68	0.02	753.33	262.22	45063
2015	91	13.60	3.70	10.88	0.00	627.50	445.20	45270
2015	92	13.20	0.80	9.79	0.00	747.50	228.52	45475
2015	93	11.10	-1.10	7.75	0.00	676.15	376.93	45681
2015	94	9.50	-0.50	6.75	0.00	474.62	198.00	45886
2015	95	9.40	2.40	7.48	0.00	456.15	354.63	46091
2015	96	8.50	1.10	6.46	0.00	545.38	428.59	46295
2015	97	9.10	2.40	7.26	0.00	504.29	254.87	46499
2015	98	10.20	5.50	8.91	0.02	435.00	67.40	46702
2015	99	13.90	7.40	12.11	0.00	590.71	283.43	46905
2015	100	18.80	2.00	14.18	0.00	922.14	473.21	47107
2015	101	21.10	2.80	16.07	0.37	1034.29	428.33	47309
2015	102	20.70	8.00	17.21	0.00	1043.57	426.27	47510
2015	103	23.70	4.00	18.28	0.00	1295.71	448.78	47710
2015	104	18.00	8.30	15.33	0.00	928.57	432.58	47910
2015	105	24.80	4.90	19.33	0.00	1575.00	463.20	48108
2015	106	27.70	4.00	21.18	0.00	1846.43	448.23	48306
2015	107	21.90	7.00	17.80	0.69	936.43	236.59	48504
2015	108	12.60	6.80	11.00	0.00	435.71	229.21	48700
2015	109	13.60	0.80	10.08	0.00	608.57	450.69	48895
2015	110	19.50	1.50	14.55	0.00	909.29	524.28	49089
2015	111	21.50	8.20	17.84	0.00	1177.14	515.47	49282
2015	112	20.80	8.20	17.34	0.00	1227.14	458.89	49475
2015	113	23.20	3.20	17.70	0.00	1394.29	466.12	49666
2015	114	19.60	7.00	16.14	0.00	910.00	314.11	49855
2015	115	23.10	5.90	18.37	0.00	1087.86	498.44	50044
2015	116	22.90	8.50	18.94	0.00	1159.29	374.28	50231
2015	117	23.20	7.70	18.94	0.00	1196.43	463.69	50417
2015	118	19.10	9.50	16.46	1.06	207.86	112.71	50601
2015	119	16.50	8.80	14.38	0.00	867.14	539.60	50784
2015	120	18.50	1.50	13.82	0.15	970.00	389.10	50966
2015	121	18.20	5.80	14.79	0.42	646.43	295.80	51145
2015	122	18.90	10.60	16.62	0.18	451.43	350.11	51324
2015	123	18.00	9.40	15.64	0.09	320.00	176.04	51500
2015	124	24.70	12.20	21.26	0.00	812.86	410.06	51674
2015	125	28.30	11.70	23.73	0.00	1329.29	422.28	51847
2015	126	26.80	13.80	23.23	0.07	964.67	409.05	52018
2015	127	22.70	9.10	18.96	0.00	1034.00	548.77	52187
2015	128	24.40	13.20	21.32	0.00	1203.33	486.81	52353
2015	129	24.30	9.40	20.20	0.06	732.00	298.32	52518
2015	130	22.90	11.70	19.82	0.00	1154.67	454.08	52680
2015	131	20.60	10.50	17.82	0.00	1018.00	539.81	52840
2015	132	24.50	4.50	19.00	0.00	1296.00	514.77	52998
2015	133	24.80	11.40	21.12	0.71	928.00	436.63	53153
2015	134	24.10	13.40	21.16	0.01	666.67	350.40	53306
2015	135	18.10	11.50	16.29	0.50	236.00	118.29	53456
2015	136	20.30	11.90	17.99	0.00	395.33	275.61	53603
2015	137	20.50	10.90	17.86	0.00	700.00	405.36	53748
2015	138	23.30	10.90	19.89	0.00	842.67	403.72	53889
2015	139	28.30	10.40	23.38	0.02	1067.33	439.46	54028
2015	140	25.40	11.30	21.52	1.98	888.67	462.80	54164
2015	141	13.50	10.10	12.57	0.41	235.33	102.52	54297
2015	142	13.00	11.10	12.48	4.42	160.00	58.23	54426
2015	143	13.40	10.60	12.63	0.24	126.88	99.81	54552
2015	144	18.30	6.00	14.92	0.00	393.13	407.01	54675
2015	145	18.70	12.60	17.02	0.12	456.25	137.68	54795
2015	146	17.10	13.70	16.16	0.37	298.13	161.56	54911
2015	147	16.80	11.30	15.29	0.00	685.63	316.95	55023
2015	148	17.60	8.30	15.04	0.00	707.50	405.38	55132
2015	149	23.40	5.50	18.48	0.00	988.13	504.03	55237
2015	150	24.70	8.30	20.19	0.12	924.38	526.00	55339
2015	151	22.30	13.80	19.96	0.00	663.75	351.21	55436
2015	152	26.30	11.00	22.09	0.00	1038.75	459.99	55530
2015	153	28.60	12.80	24.26	0.00	1370.00	492.81	55619
2015	154	30.00	13.10	25.35	0.00	1597.50	492.99	55705
2015	155	27.90	16.70	24.82	0.00	1289.38	510.86	55786
2015	156	26.80	15.80	23.78	0.00	1195.00	449.99	55863
2015	157	29.40	11.60	24.50	0.00	1366.87	510.19	55936
2015	158	29.60	14.30	25.39	0.00	1565.00	476.21	56004
2015	159	29.70	12.60	25.00	0.00	1696.88	505.68	56068
2015	160	26.70	16.50	23.90	0.00	1050.00	499.60	56128
2015	161	27.10	14.10	23.53	0.00	990.00	510.80	56183
2015	162	28.60	15.40	24.97	0.00	1287.50	501.27	56234
2015	163	31.00	14.60	26.49	0.00	1628.75	489.73	56280
2015	164	32.00	16.50	27.74	0.00	1997.50	489.61	56321
2015	165	31.80	14.00	26.91	0.05	1838.75	420.71	56358
2015	166	25.70	14.00	22.48	0.13	704.38	276.20	56390
2015	167	22.20	15.70	20.41	0.03	947.50	357.85	56418
2015	168	21.20	14.20	19.27	0.00	1005.00	405.19	56440
2015	169	24.00	10.90	20.40	0.00	1187.50	418.65	56458
2015	170	20.80	15.80	19.43	0.21	666.88	184.52	56472
2015	171	20.60	9.30	17.49	0.22	591.25	339.25	56480
2015	172	20.00	5.80	16.09	0.00	833.13	391.31	56484
2015	173	25.40	8.40	20.72	0.00	1143.75	464.15	56482
2015	174	23.20	11.40	19.95	2.67	138.13	66.53	56476
2015	175	20.60	11.20	18.02	0.00	735.31	348.24	56466
2015	176	23.50	7.90	19.21	0.00	1160.27	475.58	56450
2015	177	25.60	14.60	22.58	0.00	1370.00	533.84	56430
2015	178	25.70	15.30	22.84	0.24	797.50	211.97	56405
2015	179	25.70	16.10	23.06	0.00	1018.13	429.72	56375
2015	180	25.00	12.90	21.67	0.00	1110.00	371.74	56341
2015	181	27.20	11.10	22.77	0.00	1398.75	464.42	56301
2015	182	30.30	14.00	25.82	0.00	1623.75	459.22	56258
2015	183	31.70	15.90	27.36	0.00	1828.75	499.83	56209
2015	184	30.40	17.60	26.88	0.00	1801.88	497.85	56156
2015	185	31.60	15.00	27.04	0.00	2052.50	523.19	56099
2015	186	33.40	14.50	28.20	0.00	2082.50	513.05	56037
2015	187	34.60	15.60	29.38	0.00	2108.13	466.50	55971
2015	188	36.90	18.90	31.95	0.00	2431.88	478.24	55900
2015	189	33.20	18.90	29.27	4.57	1217.50	297.43	55825
2015	190	24.90	16.00	22.45	0.29	559.38	316.63	55746
2015	191	24.50	11.40	20.90	0.00	1177.50	507.94	55663
2015	192	27.60	13.30	23.67	0.10	1318.75	481.58	55575
2015	193	31.00	14.20	26.38	1.71	1583.13	431.27	55484
2015	194	27.30	18.00	24.74	0.10	410.00	179.82	55388
2015	195	26.80	16.70	24.02	0.00	895.00	319.04	55289
2015	196	29.60	18.80	26.63	0.00	1298.13	442.17	55186
2015	197	32.00	18.30	28.23	0.00	1355.00	376.82	55079
2015	198	34.80	19.20	30.51	0.00	1853.13	461.42	54968
2015	199	32.30	19.40	28.75	0.63	1643.75	350.13	54854
2015	200	35.50	18.70	30.88	0.00	1916.88	465.74	54736
2015	201	32.10	19.90	28.75	0.00	1782.50	450.58	54615
2015	202	34.10	18.50	29.81	0.00	1841.88	369.82	54490
2015	203	35.70	19.00	31.11	0.00	2141.25	474.70	54362
2015	204	33.40	19.50	29.58	0.30	1826.25	374.78	54231
2015	205	34.00	21.70	30.62	0.12	1751.25	452.86	54097
2015	206	32.90	18.10	28.83	2.89	1127.50	370.23	53960
2015	207	21.50	14.70	19.63	0.00	590.63	170.92	53819
2015	208	20.60	13.90	18.76	0.09	420.63	157.37	53676
2015	209	24.20	16.30	22.03	0.00	788.13	271.28	53530
2015	210	20.80	14.10	18.96	0.45	328.67	101.23	53382
2015	211	20.40	14.80	18.86	0.08	561.43	174.87	53230
2015	212	24.60	16.00	22.23	0.00	1270.00	371.65	53076
2015	213	26.60	9.00	21.76	0.02	1351.43	491.91	52920
2015	214	26.10	16.20	23.38	0.40	1182.14	350.71	52761
2015	215	28.90	17.10	25.66	0.00	1195.71	426.81	52600
2015	216	31.20	16.20	27.07	0.00	1473.57	395.80	52437
2015	217	32.20	18.10	28.32	0.00	2064.29	480.90	52271
2015	218	34.00	17.30	29.41	0.00	2191.43	442.06	52103
2015	219	35.20	18.10	30.50	0.00	2453.57	479.18	51934
2015	220	35.40	18.10	30.64	0.00	2487.86	453.94	51762
2015	221	35.30	16.80	30.21	0.00	2542.14	463.40	51588
2015	222	34.40	15.20	29.12	0.00	2699.29	453.25	51413
2015	223	34.30	15.20	29.05	0.00	2616.43	437.78	51235
2015	224	36.10	15.40	30.41	0.00	3033.57	446.12	51057
2015	225	36.20	15.40	30.48	0.00	2750.71	406.28	50876
2015	226	35.80	16.60	30.52	0.00	2414.29	417.12	50694
2015	227	34.40	17.20	29.67	0.02	2207.14	396.02	50510
2015	228	30.20	18.60	27.01	1.80	1462.86	316.94	50325
2015	229	26.10	17.90	23.84	0.21	342.14	160.75	50138
2015	230	22.80	16.30	21.01	0.00	735.71	359.58	49951
2015	231	23.70	13.90	21.00	0.00	729.29	289.65	49761
2015	232	19.00	15.10	17.93	0.02	345.71	153.84	49571
2015	233	23.30	11.80	20.14	0.00	847.14	303.07	49380
2015	234	24.40	10.20	20.49	0.00	869.29	432.23	49187
2015	235	24.10	12.40	20.88	0.04	672.86	285.12	48993
2015	236	27.50	12.10	23.27	0.00	1290.71	403.57	48798
2015	237	23.20	16.30	21.30	0.26	722.14	128.11	48603
2015	238	26.90	10.20	22.31	0.00	1509.29	468.65	48406
2015	239	29.30	12.50	24.68	0.00	971.43	461.14	48208
2015	240	32.70	16.20	28.16	0.00	1818.57	494.12	48010
2015	241	33.60	14.30	28.29	0.00	2062.86	450.44	47811
2015	242	34.70	14.00	29.01	0.00	2049.29	445.38	47611
2015	243	34.00	14.90	28.75	0.00	2142.14	453.51	47410
2015	244	34.00	15.30	28.86	0.00	2232.14	450.18	47209
2015	245	28.20	14.10	24.32	0.06	1050.00	303.51	47007
2015	246	25.20	15.70	22.59	0.31	930.00	303.78	46805
2015	247	23.40	15.10	21.12	1.41	813.85	192.23	46601
2015	248	19.30	13.90	17.82	0.84	134.62	86.84	46398
2015	249	18.60	11.50	16.65	0.36	570.00	340.90	46194
2015	250	20.00	6.10	16.18	0.02	978.46	400.60	45989
2015	251	20.30	12.60	18.18	0.00	977.69	367.39	45784
2015	252	20.20	5.20	16.07	0.00	866.92	386.79	45579
2015	253	20.00	10.60	17.41	0.05	716.15	337.79	45373
2015	254	20.70	12.20	18.36	0.46	321.54	188.64	45167
2015	255	24.10	7.20	19.45	0.00	708.46	453.64	44961
2015	256	24.30	8.40	19.93	0.00	852.31	314.93	44755
2015	257	27.70	14.50	24.07	0.00	1368.33	329.73	44548
2015	258	26.10	13.60	22.66	0.00	818.33	212.53	44341
2015	259	28.00	18.60	25.41	0.00	1208.33	277.65	44134
2015	260	32.10	21.10	29.08	0.00	1818.33	387.98	43927
2015	261	27.40	15.40	24.10	0.01	1550.83	338.43	43719
2015	262	23.20	16.50	21.36	0.10	1048.33	165.40	43512
2015	263	21.80	15.00	19.93	0.00	1110.00	322.53	43304
2015	264	20.40	7.80	16.93	0.00	1118.33	423.21	43097
2015	265	22.10	3.90	17.09	0.00	958.33	396.89	42890
2015	266	23.10	6.50	18.54	0.34	950.00	315.03	42682
2015	267	17.70	13.20	16.46	0.64	690.83	185.83	42475
2015	268	17.00	12.30	15.71	3.42	227.50	39.89	42268
2015	269	16.80	13.00	15.76	0.04	487.50	169.57	42060
2015	270	17.10	12.00	15.70	0.00	653.33	244.35	41854
2015	271	17.00	9.70	14.99	0.00	652.50	283.79	41647
2015	272	17.30	9.00	15.02	0.00	702.50	314.15	41440
2015	273	14.80	9.60	13.37	0.00	580.00	199.52	41234
2015	274	17.50	5.80	14.28	0.00	627.50	327.36	41028
2015	275	18.90	2.40	14.36	0.00	718.33	352.29	40822
2015	276	21.80	6.20	17.51	0.00	593.64	295.89	40617
2015	277	22.80	6.90	18.43	0.02	850.00	294.10	40412
2015	278	21.70	11.90	19.00	0.00	569.09	290.00	40208
2015	279	20.30	8.00	16.92	0.00	432.73	238.78	40003
2015	280	17.00	13.50	16.04	0.51	97.27	60.31	39800
2015	281	16.60	12.30	15.42	0.15	215.45	110.00	39597
2015	282	16.50	12.40	15.37	0.07	142.73	87.61	39394
2015	283	14.60	9.50	13.20	1.37	175.45	65.52	39192
2015	284	10.10	5.30	8.78	1.98	76.36	55.84	38991
2015	285	8.50	2.90	6.96	0.00	341.82	211.38	38790
2015	286	8.00	4.60	7.06	0.99	111.82	61.27	38590
2015	287	9.50	7.80	9.03	2.66	37.27	45.13	38391
2015	288	11.80	8.10	10.78	2.43	213.60	26.14	38193
2015	289	13.90	10.80	13.05	0.37	90.00	151.87	37995
2015	290	11.60	5.50	9.92	0.02	207.27	165.79	37799
2015	291	12.40	5.70	10.56	2.91	105.45	128.58	37603
2015	292	9.40	7.10	8.77	0.00	77.27	33.42	37408
2015	293	12.00	5.40	10.18	0.00	363.64	199.55	37214
2015	294	12.20	2.00	9.39	0.00	307.27	128.38	37022
2015	295	12.70	4.20	10.36	0.00	398.18	239.09	36830
2015	296	14.50	1.60	10.95	0.00	353.64	176.45	36640
2015	297	15.30	2.50	11.78	0.00	370.91	343.50	36451
2015	298	14.50	1.60	10.95	0.00	292.73	271.87	36263
2015	299	13.80	4.40	11.22	0.00	322.73	247.61	36076
2015	300	14.30	6.90	12.27	0.00	336.36	295.64	35891
2015	301	9.20	4.00	7.77	0.03	95.00	45.87	35707
2015	302	11.10	7.20	10.03	0.06	76.00	79.41	35525
2015	303	16.30	6.30	13.55	0.00	522.00	309.39	35345
2015	304	14.80	0.00	10.73	0.00	409.00	296.27	35166
2015	305	12.20	0.90	9.09	0.00	533.00	320.67	34988
2015	306	12.00	-2.40	8.04	0.00	453.00	286.85	34813
2015	307	13.10	-1.80	9.00	0.00	430.00	296.76	34639
2015	308	10.60	-0.20	7.63	0.00	130.25	232.18	34468
2015	309	13.80	-2.00	9.46	0.00	313.00	243.09	34298
2015	310	15.00	-0.50	10.74	0.00	336.67	265.97	34130
2015	311	15.90	3.30	12.44	0.00	461.11	151.71	33964
2015	312	21.00	6.50	17.01	0.00	744.44	242.98	33801
2015	313	14.40	3.60	11.43	0.00	363.33	158.33	33640
2015	314	21.80	10.90	18.80	0.00	1054.44	161.60	33481
2015	315	21.90	6.60	17.69	0.00	886.67	226.28	33325
2015	316	18.10	3.20	14.00	0.00	516.67	243.33	33171
2015	317	15.60	4.00	12.41	0.00	393.33	234.47	33019
2015	318	14.70	3.80	11.70	0.00	472.22	176.65	32871
2015	319	12.20	3.80	9.89	0.00	398.89	102.75	32725
2015	320	19.60	6.00	15.86	0.00	882.22	226.73	32582
2015	321	11.60	1.40	8.79	0.00	288.89	136.88	32441
2015	322	18.10	7.40	15.16	0.00	703.33	239.88	32304
2015	323	16.30	0.30	11.90	0.00	336.67	236.04	32170
2015	324	12.00	6.70	10.54	0.48	410.00	95.77	32039
2015	325	11.00	4.40	9.19	0.03	227.78	33.09	31911
2015	326	7.20	2.70	5.96	0.00	271.11	88.57	31786
2015	327	5.70	-2.80	3.36	0.00	171.11	221.62	31665
2015	328	4.80	-1.80	2.98	0.00	210.00	155.64	31547
2015	329	2.20	-2.60	0.88	0.03	138.89	57.98	31433
2015	330	3.80	-0.20	2.70	0.00	131.11	92.65	31322
2015	331	4.10	2.80	3.74	0.00	216.67	73.68	31215
2015	332	5.40	-1.70	3.45	0.00	186.67	160.38	31112
2015	333	9.90	-2.80	6.41	0.00	398.89	192.10	31012
2015	334	12.70	0.20	9.26	0.00	537.78	140.22	30917
2015	335	15.70	4.70	12.67	0.06	747.78	149.59	30825
2015	336	11.10	4.80	9.37	0.00	220.00	167.15	30738
2015	337	9.00	0.70	6.72	0.00	45.56	58.55	30654
2015	338	7.60	3.10	6.36	0.00	120.00	34.65	30575
2015	339	9.70	0.20	7.09	0.01	74.44	198.10	30500
2015	340	3.30	2.10	2.97	0.00	45.40	31.62	30430
2015	341	2.70	0.10	1.99	0.00	89.54	71.44	30363
2015	342	2.20	0.30	1.68	0.08	65.19	30.78	30301
2015	343	3.00	1.40	2.56	0.02	1.11	36.84	30244
2015	344	8.70	0.30	6.39	0.00	411.11	177.10	30191
2015	345	6.10	-3.30	3.51	0.00	203.33	212.82	30143
2015	346	2.10	-2.30	0.89	0.00	5.56	65.28	30099
2015	347	3.20	-3.70	1.30	0.00	14.44	115.84	30060
2015	348	6.30	-2.80	3.80	0.02	155.00	123.68	30025
2015	349	4.10	0.90	3.22	0.02	8.75	47.46	29995
2015	350	6.10	1.00	4.70	0.00	77.50	109.61	29970
2015	351	3.40	1.80	2.96	0.01	59.96	36.08	29950
2015	352	2.30	0.30	1.75	0.00	68.79	57.72	29934
2015	353	8.80	0.60	6.54	0.00	51.25	147.56	29924
2015	354	3.90	-0.10	2.80	0.01	140.58	35.27	29918
2015	355	2.90	1.20	2.43	0.00	61.48	41.31	29916
2015	356	9.60	-0.50	6.82	0.00	168.75	204.21	29920
2015	357	3.70	-1.20	2.35	0.00	52.50	167.86	29928
2015	358	9.50	-1.10	6.59	0.00	246.25	155.33	29941
2015	359	8.80	1.40	6.77	0.00	108.75	183.58	29959
2015	360	8.30	-2.80	5.25	0.00	297.50	218.81	29982
2015	361	1.60	-2.30	0.53	0.00	7.50	99.17	30009
2015	362	8.50	-4.00	5.06	0.00	172.50	215.71	30042
2015	363	3.30	-1.40	2.01	0.00	38.75	42.53	30078
2015	364	3.40	-2.40	1.80	0.00	212.50	133.39	30120
2015	365	-1.40	-8.40	-3.33	0.00	85.00	103.83	30166
2016	1	1.60	-6.70	-0.68	0.00	117.50	78.08	30217
2016	2	-1.00	-6.20	-2.43	0.05	40.00	13.87	30272
2016	3	-3.90	-5.90	-4.45	0.00	68.75	65.89	30331
2016	4	-5.90	-7.60	-6.37	0.10	60.00	67.32	30396
2016	5	-3.40	-7.60	-4.55	0.07	30.00	70.03	30464
2016	6	-0.70	-4.20	-1.66	0.32	20.00	41.37	30537
2016	7	2.50	-7.40	-0.22	0.00	11.25	187.43	30614
2016	8	3.30	-2.30	1.76	0.00	26.25	95.98	30695
2016	9	2.20	0.20	1.65	0.72	68.35	64.91	30781
2016	10	3.50	0.40	2.65	0.00	110.10	91.67	30870
2016	11	12.30	-0.60	8.75	2.32	277.50	68.45	30964
2016	12	10.10	-2.70	6.58	0.00	235.56	184.35	31061
2016	13	9.50	-3.00	6.06	0.00	295.56	148.13	31162
2016	14	8.40	-2.90	5.29	0.00	423.33	140.42	31268
2016	15	5.20	-4.30	2.59	0.00	218.89	64.07	31376
2016	16	3.70	-5.50	1.17	0.00	200.00	155.24	31489
2016	17	2.10	-4.00	0.42	0.00	160.00	151.44	31605
2016	18	1.30	-8.80	-1.48	0.00	235.56	219.53	31724
2016	19	1.20	-10.60	-2.04	0.00	157.78	174.89	31847
2016	20	3.70	-9.80	-0.01	0.00	183.00	216.13	31974
2016	21	2.60	-9.80	-0.81	0.00	186.00	217.84	32103
2016	22	3.40	-10.70	-0.48	0.00	203.00	265.35	32236
2016	23	-1.60	-11.10	-4.21	0.22	95.00	63.07	32372
2016	24	6.90	-7.90	2.83	0.00	274.00	202.84	32510
2016	25	2.80	-3.00	1.20	0.02	111.00	86.98	32652
2016	26	12.60	-2.40	8.47	0.00	427.00	198.17	32797
2016	27	10.70	-2.80	6.99	0.00	324.00	192.18	32944
2016	28	16.70	0.00	12.11	0.00	555.00	232.58	33094
2016	29	12.60	-2.40	8.47	0.00	298.00	190.33	33247
2016	30	9.60	-3.70	5.94	0.00	216.00	168.17	33402
2016	31	7.40	-0.80	5.15	0.07	250.00	52.97	33559
2016	32	14.80	2.60	11.45	0.00	401.00	116.01	33719
2016	33	9.30	0.50	6.88	0.00	164.00	71.13	33882
2016	34	8.00	-0.60	5.63	2.03	23.00	51.85	34046
2016	35	11.10	-0.60	7.88	0.00	452.00	210.32	34213
2016	36	9.60	-2.90	6.16	0.00	331.00	271.79	34382
2016	37	12.70	-2.00	8.66	0.00	442.00	268.28	34552
2016	38	13.50	-1.90	9.27	0.00	490.00	175.70	34725
2016	39	14.90	2.70	11.55	0.00	540.00	125.89	34900
2016	40	15.00	-1.10	10.57	2.11	531.00	216.95	35076
2016	41	9.60	0.40	7.07	1.47	46.00	83.15	35254
2016	42	11.80	-2.90	7.76	0.00	436.00	261.77	35434
2016	43	5.70	-4.30	2.95	1.12	163.00	121.33	35615
2016	44	10.00	-1.30	6.89	0.64	60.00	82.88	35798
2016	45	11.00	-2.00	7.43	0.76	191.00	161.57	35983
2016	46	7.60	3.10	6.36	1.14	150.00	48.65	36169
2016	47	6.70	3.20	5.74	0.10	238.00	77.59	36356
2016	48	4.50	2.50	3.95	0.04	26.00	40.01	36544
2016	49	7.10	3.40	6.08	1.16	160.77	43.01	36734
2016	50	7.50	0.80	5.66	0.67	73.00	89.77	36925
2016	51	11.00	-0.40	7.87	0.14	168.00	241.89	37117
2016	52	17.10	3.50	13.36	0.08	558.00	200.28	37310
2016	53	18.40	3.60	14.33	0.03	624.00	254.54	37505
2016	54	15.90	4.30	12.71	0.15	510.00	113.52	37700
2016	55	13.10	-1.70	9.03	0.00	545.45	292.90	37896
2016	56	7.40	-2.90	4.57	0.14	187.27	124.15	38093
2016	57	8.50	0.80	6.38	0.00	359.09	163.63	38291
2016	58	10.80	-4.40	6.62	0.00	374.55	294.78	38490
2016	59	11.40	0.80	8.48	0.17	174.55	133.70	38689
2016	60	10.10	4.00	8.42	0.67	52.73	65.79	38890
2016	61	11.60	3.20	9.29	0.00	249.09	140.02	39091
2016	62	12.60	-3.30	8.23	0.27	258.33	222.24	39292
2016	63	5.20	2.20	4.38	0.84	84.17	70.76	39495
2016	64	10.40	-1.40	7.16	0.00	421.67	313.43	39697
2016	65	12.10	-1.60	8.33	0.00	470.83	223.25	39901
2016	66	14.70	2.10	11.23	0.45	320.83	183.92	40105
2016	67	5.20	1.30	4.13	0.64	78.33	64.25	40309
2016	68	10.90	0.40	8.01	0.00	200.83	198.38	40514
2016	69	12.40	-2.40	8.33	0.00	289.17	358.05	40719
2016	70	14.00	-2.10	9.57	0.06	389.17	370.48	40924
2016	71	8.60	5.70	7.80	0.14	220.00	103.12	41130
2016	72	9.40	4.00	7.92	0.03	255.83	133.56	41336
2016	73	11.00	3.50	8.94	0.00	169.17	137.24	41543
2016	74	10.90	-0.80	7.68	0.00	390.00	419.01	41749
2016	75	7.30	0.60	5.46	0.42	170.00	104.76	41956
2016	76	10.00	0.90	7.50	0.00	149.17	172.05	42163
2016	77	15.20	-1.80	10.52	0.00	458.33	398.82	42370
2016	78	17.10	-3.50	11.44	0.00	517.50	430.15	42578
2016	79	12.10	1.90	9.29	0.00	361.67	400.56	42785
2016	80	17.50	-0.90	12.44	0.00	554.17	427.28	42992
2016	81	16.40	2.20	12.49	0.00	395.42	272.06	43200
2016	82	14.00	0.80	10.37	0.06	453.33	258.80	43407
2016	83	11.70	2.80	9.25	0.00	372.50	177.39	43615
2016	84	12.20	-0.50	8.71	0.02	404.17	301.19	43822
2016	85	12.40	-2.80	8.22	0.00	524.17	159.64	44029
2016	86	12.70	1.30	9.56	0.08	301.67	188.23	44236
2016	87	18.10	-2.30	12.49	0.00	580.83	406.22	44443
2016	88	19.30	-0.10	13.97	0.00	505.83	349.60	44650
2016	89	18.60	1.10	13.79	0.98	502.50	254.70	44857
2016	90	21.10	1.20	15.63	0.01	552.50	299.31	45063
2016	91	25.40	1.50	18.83	0.00	1018.33	416.09	45270
2016	92	21.90	8.00	18.08	0.00	785.00	266.57	45475
2016	93	17.90	1.60	13.42	0.00	668.46	330.75	45681
2016	94	23.60	-0.20	17.06	0.00	1123.08	422.09	45886
2016	95	26.40	7.20	21.12	0.00	1403.08	385.12	46091
2016	96	27.00	6.00	21.23	0.00	1559.23	383.02	46295
2016	97	21.80	6.10	17.48	0.00	950.00	414.94	46499
2016	98	22.60	4.30	17.57	0.00	775.71	365.91	46702
2016	99	12.30	8.30	11.20	0.53	281.43	85.15	46905
2016	100	14.50	7.20	12.49	0.00	355.00	312.41	47107
2016	101	16.60	3.50	13.00	0.00	520.71	359.69	47309
2016	102	20.60	2.70	15.68	0.00	636.43	480.94	47510
2016	103	22.40	1.80	16.73	0.00	555.00	448.65	47710
2016	104	25.90	3.40	19.71	0.00	1005.71	419.40	47910
2016	105	16.50	3.10	12.82	0.04	442.14	127.63	48108
2016	106	22.10	1.00	16.30	0.00	987.14	423.15	48306
2016	107	24.50	2.70	18.50	0.00	1390.00	502.56	48504
2016	108	24.30	11.90	20.89	0.00	1318.57	358.11	48700
2016	109	15.30	8.90	13.54	0.00	403.57	316.88	48895
2016	110	17.50	7.90	14.86	0.00	782.86	387.17	49089
2016	111	18.90	0.90	13.95	0.00	847.86	362.16	49282
2016	112	23.30	-0.80	16.67	0.00	1026.43	502.52	49475
2016	113	22.50	1.40	16.70	0.00	1015.71	495.92	49666
2016	114	24.10	8.00	19.67	0.37	882.14	370.80	49855
2016	115	10.50	4.90	8.96	0.00	501.43	224.78	50044
2016	116	13.20	-1.60	9.13	0.00	540.71	346.18	50231
2016	117	18.80	-2.30	13.00	0.00	797.86	470.69	50417
2016	118	8.40	1.20	6.42	0.87	125.00	64.02	50601
2016	119	16.70	-1.30	11.75	0.00	202.86	167.38	50784
2016	120	21.00	-1.90	14.70	0.00	672.14	560.34	50966
2016	121	23.10	-0.80	16.53	0.00	818.57	507.68	51145
2016	122	15.40	3.50	12.13	1.56	130.71	109.84	51324
2016	123	17.20	9.80	15.16	0.73	88.57	100.94	51500
2016	124	20.50	10.70	17.81	0.38	635.71	367.39	51674
2016	125	16.80	9.20	14.71	0.00	449.29	145.78	51847
2016	126	20.50	8.20	17.12	0.00	463.33	445.07	52018
2016	127	25.20	6.30	20.00	0.00	872.00	506.57	52187
2016	128	26.70	3.80	20.40	0.00	990.00	499.78	52353
2016	129	23.60	5.50	18.62	0.00	688.67	429.75	52518
2016	130	24.60	4.60	19.10	0.00	779.33	441.85	52680
2016	131	21.60	5.80	17.26	0.00	404.00	277.63	52840
2016	132	18.30	12.30	16.65	1.17	244.00	127.06	52998
2016	133	17.50	12.50	16.13	1.58	58.00	67.18	53153
2016	134	24.00	9.80	20.09	1.26	566.67	379.74	53306
2016	135	22.40	11.60	19.43	0.82	385.33	213.20	53456
2016	136	16.80	2.20	12.79	0.04	529.33	243.66	53603
2016	137	18.60	-0.10	13.46	0.12	634.67	409.66	53748
2016	138	19.50	3.10	14.99	0.00	640.67	399.72	53889
2016	139	22.70	6.60	18.27	0.00	724.00	320.76	54028
2016	140	24.80	3.70	19.00	1.26	852.67	493.58	54164
2016	141	23.50	6.90	18.93	0.00	660.67	388.99	54297
2016	142	27.00	4.80	20.90	0.00	1128.00	493.64	54426
2016	143	27.20	6.90	21.62	0.00	1336.88	530.56	54552
2016	144	28.00	7.10	22.25	2.18	1279.38	517.57	54675
2016	145	22.30	10.70	19.11	0.00	256.88	176.13	54795
2016	146	24.30	8.10	19.84	0.00	791.88	483.84	54911
2016	147	26.90	8.20	21.76	0.00	725.00	457.54	55023
2016	148	28.40	9.70	23.26	0.00	1168.75	443.73	55132
2016	149	30.00	15.50	26.01	0.00	1418.75	440.04	55237
2016	150	30.50	12.60	25.58	0.21	1441.25	457.48	55339
2016	151	27.80	12.30	23.54	0.00	1038.75	517.19	55436
2016	152	28.80	8.90	23.33	0.04	1035.63	515.15	55530
2016	153	26.50	9.90	21.93	0.00	850.63	396.67	55619
2016	154	28.90	11.20	24.03	0.00	566.25	359.04	55705
2016	155	28.50	12.20	24.02	0.00	730.00	366.35	55786
2016	156	28.30	11.10	23.57	0.00	718.75	354.04	55863
2016	157	27.10	11.20	22.73	0.83	392.50	214.89	55936
2016	158	28.70	9.80	23.50	0.00	1026.25	484.81	56004
2016	159	25.70	8.50	20.97	0.00	1216.25	500.22	56068
2016	160	29.10	7.60	23.19	0.00	1136.88	464.70	56128
2016	161	27.10	12.30	23.03	0.06	862.50	296.58	56183
2016	162	26.50	12.00	22.51	0.35	427.50	300.49	56234
2016	163	28.20	10.30	23.28	0.96	460.00	334.37	56280
2016	164	25.00	14.60	22.14	0.00	431.25	246.50	56321
2016	165	26.40	11.40	22.27	0.00	620.63	324.73	56358
2016	166	28.00	10.60	23.22	1.23	703.75	352.75	56390
2016	167	26.40	13.10	22.74	0.94	325.00	260.68	56418
2016	168	29.60	13.40	25.15	0.00	1208.75	411.78	56440
2016	169	28.60	11.70	23.95	0.00	1406.88	444.83	56458
2016	170	29.80	9.80	24.30	0.00	977.50	477.03	56472
2016	171	23.90	12.60	20.79	2.13	564.38	207.41	56480
2016	172	24.50	11.80	21.01	2.54	298.13	285.77	56484
2016	173	31.70	9.80	25.68	0.00	996.25	446.39	56482
2016	174	32.50	12.50	27.00	0.00	1281.88	453.73	56476
2016	175	34.00	14.20	28.56	0.00	1375.63	469.98	56466
2016	176	35.00	16.80	29.99	0.00	1498.13	448.36	56450
2016	177	33.60	18.40	29.42	0.08	1285.63	457.85	56430
2016	178	29.20	17.30	25.93	0.00	1021.88	419.64	56405
2016	179	24.10	11.60	20.66	0.16	738.75	204.72	56375
2016	180	27.40	8.40	22.17	0.00	1309.38	504.80	56341
2016	181	33.20	9.80	26.77	0.00	1393.13	478.93	56301
2016	182	32.00	12.90	26.75	0.00	1456.25	449.29	56258
2016	183	32.20	14.20	27.25	0.00	1396.88	409.72	56209
2016	184	33.40	13.90	28.04	0.00	1361.25	447.22	56156
2016	185	22.30	9.60	18.81	0.42	861.88	149.78	56099
2016	186	29.50	7.90	23.56	0.00	1300.63	473.12	56037
2016	187	31.10	11.30	25.66	0.00	1380.00	454.58	55971
2016	188	30.70	14.20	26.16	0.00	1168.13	382.92	55900
2016	189	29.40	9.40	23.90	0.00	1330.63	407.42	55825
2016	190	30.70	11.10	25.31	0.00	1268.75	496.23	55746
2016	191	32.60	14.50	27.62	0.00	1474.38	360.60	55663
2016	192	34.40	13.70	28.71	0.00	1576.88	451.42	55575
2016	193	35.50	14.00	29.59	0.00	1832.50	476.97	55484
2016	194	34.70	18.60	30.27	1.51	1649.38	476.63	55388
2016	195	28.90	17.50	25.77	0.50	807.50	392.72	55289
2016	196	25.80	13.20	22.34	3.03	850.00	369.03	55186
2016	197	23.40	10.40	19.82	0.00	875.63	332.58	55079
2016	198	16.50	13.70	15.73	0.09	468.75	91.49	54968
2016	199	25.40	13.70	22.18	0.00	850.00	205.36	54854
2016	200	31.20	14.60	26.63	0.00	1181.25	406.56	54736
2016	201	29.80	14.90	25.70	0.00	1271.88	462.85	54615
2016	202	29.80	14.60	25.62	0.00	1181.25	440.37	54490
2016	203	33.40	12.30	27.60	0.05	1294.38	468.95	54362
2016	204	31.60	15.70	27.23	1.53	1055.63	456.12	54231
2016	205	33.00	18.30	28.96	0.00	833.75	347.58	54097
2016	206	31.50	18.30	27.87	0.00	1004.38	428.81	53960
2016	207	28.40	17.70	25.46	0.72	460.63	192.87	53819
2016	208	28.70	15.70	25.13	1.27	574.38	296.05	53676
2016	209	32.70	15.60	28.00	0.05	801.88	402.05	53530
2016	210	29.20	18.30	26.20	1.64	655.33	306.30	53382
2016	211	20.40	14.80	18.86	0.08	1286.43	423.87	53230
2016	212	24.60	16.00	22.23	0.00	863.57	467.18	53076
2016	213	26.60	9.00	21.76	0.02	1456.86	412.35	52920
2016	214	26.10	16.20	23.38	0.40	1032.42	221.14	52761
2016	215	28.90	17.10	25.66	0.00	1343.41	333.87	52600
2016	216	31.20	16.20	27.07	0.00	1739.42	395.23	52437
2016	217	32.20	18.10	28.32	0.00	1774.71	375.26	52271
2016	218	34.00	17.30	29.41	0.00	2126.43	412.71	52103
2016	219	35.20	18.10	30.50	0.00	2289.18	413.27	51934
2016	220	35.40	18.10	30.64	0.00	2325.51	414.99	51762
2016	221	35.30	16.80	30.21	0.00	2382.18	431.10	51588
2016	222	34.40	15.20	29.12	0.00	2306.29	443.13	51413
2016	223	34.30	15.20	29.05	0.00	2289.43	441.83	51235
2016	224	36.10	15.40	30.41	0.00	2593.88	449.07	51057
2016	225	36.20	15.40	30.48	0.00	2611.94	445.66	50876
2016	226	35.80	16.60	30.52	0.00	2482.59	425.37	50694
2016	227	34.40	17.20	29.67	0.02	2201.34	300.62	50510
2016	228	30.20	18.60	27.01	1.80	1424.39	229.15	50325
2016	229	26.10	17.90	23.84	0.21	905.14	174.18	50138
2016	230	22.80	16.30	21.01	0.00	635.34	194.76	49951
2016	231	23.70	13.90	21.00	0.00	899.23	286.89	49761
2016	232	19.00	15.10	17.93	0.02	338.11	95.80	49571
2016	233	23.30	11.80	20.14	0.00	973.70	338.55	49380
2016	234	24.40	10.20	20.49	0.00	1165.89	390.53	49187
2016	235	24.10	12.40	20.88	0.04	1028.76	255.28	48993
2016	236	27.50	12.10	23.27	0.00	1442.56	398.39	48798
2016	237	23.20	16.30	21.30	0.26	680.01	159.34	48603
2016	238	26.90	10.20	22.31	0.00	1448.87	415.57	48406
2016	239	29.30	12.50	24.68	0.00	1658.09	407.33	48208
2016	240	32.70	16.20	28.16	0.00	1974.31	386.07	48010
2016	241	33.60	14.30	28.29	0.00	2214.82	411.59	47811
2016	242	34.70	14.00	29.01	0.00	2408.91	416.60	47611
2016	243	34.00	14.90	28.75	0.00	2253.32	399.18	47410
2016	244	34.00	15.30	28.86	0.00	2234.40	389.27	47209
2016	245	28.20	14.10	24.32	0.06	1432.91	253.17	47007
2016	246	25.20	15.70	22.59	0.31	956.17	186.49	46805
2016	247	23.40	15.10	21.12	1.41	788.44	167.82	46601
2016	248	19.30	13.90	17.82	0.84	451.65	116.95	46398
2016	249	18.60	11.50	16.65	0.36	537.60	155.11	46194
2016	250	20.00	6.10	16.18	0.02	896.82	269.97	45989
2016	251	20.30	12.60	18.18	0.00	628.48	223.55	45784
2016	252	20.20	5.20	16.07	0.00	941.83	378.74	45579
2016	253	20.00	10.60	17.41	0.05	710.70	203.80	45373
2016	254	20.70	12.20	18.36	0.46	690.03	188.69	45167
2016	255	24.10	7.20	19.45	0.00	1243.85	396.05	44961
2016	256	24.30	8.40	19.93	0.00	1224.87	382.41	44755
2016	257	27.70	14.50	24.07	0.00	1345.02	332.80	44548
2016	258	26.10	13.60	22.66	0.00	1194.71	322.70	44341
2016	259	28.00	18.60	25.41	0.00	1103.78	249.49	44134
2016	260	32.10	21.10	29.08	0.00	1521.14	265.25	43927
2016	261	27.40	15.40	24.10	0.01	1251.93	223.75	43719
2016	262	23.20	16.50	21.36	0.10	664.82	138.37	43512
2016	263	21.80	15.00	19.93	0.00	622.62	190.32	43304
2016	264	20.40	7.80	16.93	0.00	871.00	320.69	43097
2016	265	22.10	3.90	17.09	0.00	1141.13	379.89	42890
2016	266	23.10	6.50	18.54	0.34	1165.82	269.61	42682
2016	267	17.70	13.20	16.46	0.64	355.05	95.64	42475
2016	268	17.00	12.30	15.71	3.42	353.85	102.07	42268
2016	269	16.80	13.00	15.76	0.04	292.11	85.47	42060
2016	270	17.10	12.00	15.70	0.00	380.68	152.72	41854
2016	271	17.00	9.70	14.99	0.00	500.72	217.44	41647
2016	272	17.30	9.00	15.02	0.00	558.86	246.12	41440
2016	273	14.80	9.60	13.37	0.00	338.75	169.26	41234
2016	274	17.50	5.80	14.28	0.00	705.41	316.58	41028
2016	275	18.90	2.40	14.36	0.00	909.83	358.47	40822
2016	276	21.80	6.20	17.51	0.00	1052.48	341.56	40617
2016	277	22.80	6.90	18.43	0.02	1124.50	252.18	40412
2016	278	21.70	11.90	19.00	0.00	804.39	254.28	40208
2016	279	20.30	8.00	16.92	0.00	854.35	293.06	40003
2016	280	17.00	13.50	16.04	0.51	275.04	77.88	39800
2016	281	16.60	12.30	15.42	0.15	321.00	94.54	39597
2016	282	16.50	12.40	15.37	0.07	306.52	92.02	39394
2016	283	14.60	9.50	13.20	1.37	329.59	114.96	39192
2016	284	10.10	5.30	8.78	1.98	240.16	111.73	38991
2016	285	8.50	2.90	6.96	0.00	246.49	176.15	38790
2016	286	8.00	4.60	7.06	0.99	157.95	85.43	38590
2016	287	9.50	7.80	9.03	2.66	92.27	48.11	38391
2016	288	11.80	8.10	10.78	2.43	213.60	93.33	38193
2016	289	13.90	10.80	13.05	0.37	206.93	78.26	37995
2016	290	11.60	5.50	9.92	0.02	318.11	147.57	37799
2016	291	12.40	5.70	10.56	2.91	358.45	158.09	37603
2016	292	9.40	7.10	8.77	0.00	121.30	82.67	37408
2016	293	12.00	5.40	10.18	0.00	346.02	205.66	37214
2016	294	12.20	2.00	9.39	0.00	473.01	266.57	37022
2016	295	12.70	4.20	10.36	0.00	432.98	242.63	36830
2016	296	14.50	1.60	10.95	0.00	622.36	282.87	36640
2016	297	15.30	2.50	11.78	0.00	650.53	275.89	36451
2016	298	14.50	1.60	10.95	0.00	622.36	272.37	36263
2016	299	13.80	4.40	11.22	0.00	494.76	234.81	36076
2016	300	14.30	6.90	12.27	0.00	431.94	197.75	35891
2016	301	9.20	4.00	7.77	0.03	242.61	114.16	35707
2016	302	11.10	7.20	10.03	0.06	214.36	86.80	35525
2016	303	16.30	6.30	13.55	0.00	597.38	226.48	35345
2016	304	14.80	0.00	10.73	0.00	677.96	258.95	35166
2016	305	12.20	0.90	9.09	0.00	502.83	238.99	34988
2016	306	12.00	-2.40	8.04	0.00	563.19	253.72	34813
2016	307	13.10	-1.80	9.00	0.00	612.44	251.48	34639
2016	308	10.60	-0.20	7.63	0.00	443.67	227.08	34468
2016	309	13.80	-2.00	9.46	0.00	655.84	246.64	34298
2016	310	15.00	-0.50	10.74	0.00	700.46	239.82	34130
2016	311	15.90	3.30	12.44	0.00	668.73	219.95	33964
2016	312	21.00	6.50	17.01	0.00	970.69	219.42	33801
2016	313	14.40	3.60	11.43	0.00	559.62	197.43	33640
2016	314	21.80	10.90	18.80	0.00	866.05	183.04	33481
2016	315	21.90	6.60	17.69	0.00	1049.13	209.59	33325
2016	316	18.10	3.20	14.00	0.00	829.66	207.91	33171
2016	317	15.60	4.00	12.41	0.00	627.19	183.09	33019
2016	318	14.70	3.80	11.70	0.00	572.95	173.26	32871
2016	319	12.20	3.80	9.89	0.00	416.71	142.38	32725
2016	320	19.60	6.00	15.86	0.00	866.41	182.52	32582
2016	321	11.60	1.40	8.79	0.00	455.95	157.94	32441
2016	322	18.10	7.40	15.16	0.00	692.55	152.56	32304
2016	323	16.30	0.30	11.90	0.00	768.45	188.86	32170
2016	324	12.00	6.70	10.54	0.48	291.69	62.90	32039
2016	325	11.00	4.40	9.19	0.03	325.77	77.16	31911
2016	326	7.20	2.70	5.96	0.00	190.73	74.05	31786
2016	327	5.70	-2.80	3.36	0.00	280.23	131.70	31665
2016	328	4.80	-1.80	2.98	0.00	221.48	107.32	31547
2016	329	2.20	-2.60	0.88	0.03	146.46	60.86	31433
2016	330	3.80	-0.20	2.70	0.00	139.68	67.75	31322
2016	331	4.10	2.80	3.74	0.00	51.51	28.87	31215
2016	332	5.40	-1.70	3.45	0.00	242.71	111.71	31112
2016	333	9.90	-2.80	6.41	0.00	464.41	161.60	31012
2016	334	12.70	0.20	9.26	0.00	548.35	156.99	30917
2016	335	15.70	4.70	12.67	0.06	611.55	106.65	30825
2016	336	11.10	4.80	9.37	0.00	316.41	95.66	30738
2016	337	9.00	0.70	6.72	0.00	339.66	122.88	30654
2016	338	7.60	3.10	6.36	0.00	195.50	72.98	30575
2016	339	9.70	0.20	7.09	0.01	387.80	101.97	30500
2016	340	3.30	2.10	2.97	0.00	45.40	27.14	30430
2016	341	2.70	0.10	1.99	0.00	89.54	48.06	30363
2016	342	2.20	0.30	1.68	0.08	65.19	28.62	30301
2016	343	3.00	1.40	2.56	0.02	58.46	25.48	30244
2016	344	8.70	0.30	6.39	0.00	336.09	133.47	30191
2016	345	6.10	-3.30	3.51	0.00	306.86	144.76	30143
2016	346	2.10	-2.30	0.89	0.00	135.57	85.05	30099
2016	347	3.20	-3.70	1.30	0.00	206.36	123.15	30060
2016	348	6.30	-2.80	3.80	0.02	304.47	107.91	30025
2016	349	4.10	0.90	3.22	0.02	117.58	47.96	29995
2016	350	6.10	1.00	4.70	0.00	197.17	98.57	29970
2016	351	3.40	1.80	2.96	0.01	59.96	27.51	29950
2016	352	2.30	0.30	1.75	0.00	68.79	45.40	29934
2016	353	8.80	0.60	6.54	0.00	332.69	141.84	29924
2016	354	3.90	-0.10	2.80	0.01	140.58	65.14	29918
2016	355	2.90	1.20	2.43	0.00	61.48	40.98	29916
2016	356	9.60	-0.50	6.82	0.00	400.42	154.13	29920
2016	357	3.70	-1.20	2.35	0.00	164.01	104.34	29928
2016	358	9.50	-1.10	6.59	0.00	409.69	156.73	29941
2016	359	8.80	1.40	6.77	0.00	309.62	133.95	29959
2016	360	8.30	-2.80	5.25	0.00	390.15	158.76	29982
2016	361	1.60	-2.30	0.53	0.00	118.72	83.23	30009
2016	362	8.50	-4.00	5.06	0.00	421.47	164.50	30042
2016	363	3.30	-1.40	2.01	0.00	154.57	99.03	30078
2016	364	3.40	-2.40	1.80	0.00	183.68	119.63	30120
2016	365	-1.40	-8.40	-3.33	0.00	153.65	139.92	30166
